%OpenBCI Raw EEG Data
%Number of channels = 8
%Sample Rate = 250 Hz
%Board = OpenBCI_GUI$BoardCytonSerial
Sample Index, EXG Channel 0, EXG Channel 1, EXG Channel 2, EXG Channel 3, EXG Channel 4, EXG Channel 5, EXG Channel 6, EXG Channel 7, Accel Channel 0, Accel Channel 1, Accel Channel 2, Other, Other, Other, Other, Other, Other, Other, Analog Channel 0, Analog Channel 1, Analog Channel 2, Timestamp, Timestamp (Formatted)
0.0, -15537.099609375, 18178.091796875, -15536.8984375, 136309.890625, -187500.015625, -140443.03125, -187500.015625, -187500.015625, -0.058000002056360245, -0.32200002670288086, 0.38200002908706665, 192.0, 254.0, 48.0, 245.0, 240.0, 11.0, 240.0, 0.0, 0.0, 0.0, 1.6137590063153267E9, 2021-02-19 16:23:26.315
1.0, -15714.3935546875, 18413.5, -15309.7373046875, 136534.640625, -187500.015625, -141642.890625, -187500.015625, -187500.015625, -0.058000002056360245, -0.32200002670288086, 0.38200002908706665, 192.0, 0.0, 0.0, 0.0, 0.0, 0.0, 0.0, 0.0, 0.0, 0.0, 1.613759006319328E9, 2021-02-19 16:23:26.319
2.0, -15505.6279296875, 18581.361328125, -15142.703125, 136708.546875, -187500.015625, -143660.375, -187500.015625, -187500.015625, -0.058000002056360245, -0.32200002670288086, 0.38200002908706665, 192.0, 0.0, 0.0, 0.0, 0.0, 0.0, 0.0, 0.0, 0.0, 0.0, 1.6137590063234363E9, 2021-02-19 16:23:26.323
3.0, -15356.3408203125, 18351.966796875, -15367.181640625, 136488.515625, -187500.015625, -142710.546875, -187500.015625, -187500.015625, -0.058000002056360245, -0.32200002670288086, 0.38200002908706665, 192.0, 0.0, 0.0, 0.0, 0.0, 0.0, 0.0, 0.0, 0.0, 0.0, 1.6137590063265057E9, 2021-02-19 16:23:26.326
4.0, -15499.369140625, 18163.943359375, -15552.9912109375, 136297.46875, -187500.015625, -140555.9375, -187500.015625, -187500.015625, -0.058000002056360245, -0.32200002670288086, 0.38200002908706665, 192.0, 0.0, 0.0, 0.0, 0.0, 0.0, 0.0, 0.0, 0.0, 0.0, 1.6137590063325312E9, 2021-02-19 16:23:26.332
5.0, -15725.859375, 18342.6015625, -15380.279296875, 136463.875, -187500.015625, -141211.65625, -187500.015625, -187500.015625, -0.058000002056360245, -0.32200002670288086, 0.38200002908706665, 192.0, 0.0, 0.0, 0.0, 0.0, 0.0, 0.0, 0.0, 0.0, 0.0, 1.6137590063353317E9, 2021-02-19 16:23:26.335
6.0, -15584.015625, 18540.90625, -15183.8525390625, 136664.65625, -187500.015625, -143432.34375, -187500.015625, -187500.015625, -0.058000002056360245, -0.32200002670288086, 0.38200002908706665, 192.0, 0.0, 0.0, 0.0, 0.0, 0.0, 0.0, 0.0, 0.0, 0.0, 1.6137590063393424E9, 2021-02-19 16:23:26.339
7.0, -15398.138671875, 18373.4453125, -15345.74609375, 136504.359375, -187500.015625, -143041.640625, -187500.015625, -187500.015625, -0.08000000566244125, -0.4820000231266022, 0.578000009059906, 192.0, 253.0, 128.0, 240.0, 240.0, 18.0, 16.0, 0.0, 0.0, 0.0, 1.6137590063423495E9, 2021-02-19 16:23:26.342
8.0, -15468.345703125, 18176.6171875, -15539.22265625, 136305.421875, -187500.015625, -140786.6875, -187500.015625, -187500.015625, -0.08000000566244125, -0.4820000231266022, 0.578000009059906, 192.0, 0.0, 0.0, 0.0, 0.0, 0.0, 0.0, 0.0, 0.0, 0.0, 1.6137590063463972E9, 2021-02-19 16:23:26.346
9.0, -15697.0703125, 18311.912109375, -15411.884765625, 136426.5, -187500.015625, -140854.296875, -187500.015625, -187500.015625, -0.08000000566244125, -0.4820000231266022, 0.578000009059906, 192.0, 0.0, 0.0, 0.0, 0.0, 0.0, 0.0, 0.0, 0.0, 0.0, 1.6137590063664951E9, 2021-02-19 16:23:26.366
10.0, -15612.603515625, 18553.400390625, -15175.6494140625, 136668.015625, -187500.015625, -143135.765625, -187500.015625, -187500.015625, -0.08000000566244125, -0.4820000231266022, 0.578000009059906, 192.0, 0.0, 0.0, 0.0, 0.0, 0.0, 0.0, 0.0, 0.0, 0.0, 1.613759006369436E9, 2021-02-19 16:23:26.369
11.0, -15411.3935546875, 18411.265625, -15312.28515625, 136534.796875, -187500.015625, -143326.078125, -187500.015625, -187500.015625, -0.08000000566244125, -0.4820000231266022, 0.578000009059906, 192.0, 0.0, 0.0, 0.0, 0.0, 0.0, 0.0, 0.0, 0.0, 0.0, 1.613759006372399E9, 2021-02-19 16:23:26.372
12.0, -15469.3515625, 18141.390625, -15577.734375, 136268.703125, -187500.015625, -141087.796875, -187500.015625, -187500.015625, -0.08000000566244125, -0.4820000231266022, 0.578000009059906, 192.0, 0.0, 0.0, 0.0, 0.0, 0.0, 0.0, 0.0, 0.0, 0.0, 1.6137590063764367E9, 2021-02-19 16:23:26.376
13.0, -15735.404296875, 18187.189453125, -15537.6806640625, 136303.90625, -187500.015625, -140530.90625, -187500.015625, -187500.015625, -0.08000000566244125, -0.4820000231266022, 0.578000009059906, 192.0, 0.0, 0.0, 0.0, 0.0, 0.0, 0.0, 0.0, 0.0, 0.0, 1.613759006379446E9, 2021-02-19 16:23:26.379
14.0, -15707.8662109375, 18484.958984375, -15242.861328125, 136600.796875, -187500.015625, -142713.515625, -187500.015625, -187500.015625, -0.08000000566244125, -0.4820000231266022, 0.578000009059906, 192.0, 0.0, 0.0, 0.0, 0.0, 0.0, 0.0, 0.0, 0.0, 0.0, 1.6137590063845415E9, 2021-02-19 16:23:26.384
15.0, -15477.509765625, 18421.2109375, -15302.5400390625, 136548.703125, -187500.015625, -143484.0625, -187500.015625, -187500.015625, -0.08000000566244125, -0.4820000231266022, 0.578000009059906, 192.0, 0.0, 0.0, 0.0, 0.0, 0.0, 0.0, 0.0, 0.0, 0.0, 1.6137590063914232E9, 2021-02-19 16:23:26.391
16.0, -15431.7998046875, 18231.22265625, -15488.283203125, 136361.859375, -187500.015625, -141453.171875, -187500.015625, -187500.015625, -0.09400000423192978, -0.5660000443458557, 0.6720000505447388, 192.0, 253.0, 16.0, 238.0, 80.0, 21.0, 0.0, 0.0, 0.0, 0.0, 1.6137590063954215E9, 2021-02-19 16:23:26.395
17.0, -15636.5419921875, 18209.5859375, -15510.4560546875, 136330.078125, -187500.015625, -140351.203125, -187500.015625, -187500.015625, -0.09400000423192978, -0.5660000443458557, 0.6720000505447388, 192.0, 0.0, 0.0, 0.0, 0.0, 0.0, 0.0, 0.0, 0.0, 0.0, 1.6137590063990853E9, 2021-02-19 16:23:26.399
18.0, -15699.57421875, 18491.59765625, -15231.4169921875, 136606.078125, -187500.015625, -142291.0, -187500.015625, -187500.015625, -0.09400000423192978, -0.5660000443458557, 0.6720000505447388, 192.0, 0.0, 0.0, 0.0, 0.0, 0.0, 0.0, 0.0, 0.0, 0.0, 1.6137590064214487E9, 2021-02-19 16:23:26.421
19.0, -15452.185546875, 18529.662109375, -15190.71484375, 136654.5, -187500.015625, -143591.15625, -187500.015625, -187500.015625, -0.09400000423192978, -0.5660000443458557, 0.6720000505447388, 192.0, 0.0, 0.0, 0.0, 0.0, 0.0, 0.0, 0.0, 0.0, 0.0, 1.613759006426494E9, 2021-02-19 16:23:26.426
20.0, -15381.28515625, 18274.740234375, -15437.611328125, 136407.796875, -187500.015625, -141802.5, -187500.015625, -187500.015625, -0.09400000423192978, -0.5660000443458557, 0.6720000505447388, 192.0, 0.0, 0.0, 0.0, 0.0, 0.0, 0.0, 0.0, 0.0, 0.0, 1.6137590064304836E9, 2021-02-19 16:23:26.430
21.0, -15618.4150390625, 18142.171875, -15565.798828125, 136270.375, -187500.015625, -140145.078125, -187500.015625, -187500.015625, -0.09400000423192978, -0.5660000443458557, 0.6720000505447388, 192.0, 0.0, 0.0, 0.0, 0.0, 0.0, 0.0, 0.0, 0.0, 0.0, 1.6137590064344597E9, 2021-02-19 16:23:26.434
22.0, -15786.1201171875, 18378.341796875, -15334.3466796875, 136498.671875, -187500.015625, -141712.21875, -187500.015625, -187500.015625, -0.09400000423192978, -0.5660000443458557, 0.6720000505447388, 192.0, 0.0, 0.0, 0.0, 0.0, 0.0, 0.0, 0.0, 0.0, 0.0, 1.6137590064385042E9, 2021-02-19 16:23:26.438
23.0, -15547.4033203125, 18524.923828125, -15185.55078125, 136651.8125, -187500.015625, -143459.859375, -187500.015625, -187500.015625, -0.09400000423192978, -0.5660000443458557, 0.6720000505447388, 192.0, 0.0, 0.0, 0.0, 0.0, 0.0, 0.0, 0.0, 0.0, 0.0, 1.6137590064424827E9, 2021-02-19 16:23:26.442
24.0, -15403.3017578125, 18303.484375, -15399.859375, 136439.25, -187500.015625, -142210.4375, -187500.015625, -187500.015625, -0.09400000423192978, -0.5660000443458557, 0.6720000505447388, 192.0, 0.0, 0.0, 0.0, 0.0, 0.0, 0.0, 0.0, 0.0, 0.0, 1.6137590064635048E9, 2021-02-19 16:23:26.463
25.0, -15581.5126953125, 18127.443359375, -15577.4443359375, 136257.96875, -187500.015625, -140335.59375, -187500.015625, -187500.015625, -0.09400000423192978, -0.5660000443458557, 0.6720000505447388, 192.0, 0.0, 0.0, 0.0, 0.0, 0.0, 0.0, 0.0, 0.0, 0.0, 1.6137590064685836E9, 2021-02-19 16:23:26.468
26.0, -15762.5390625, 18382.72265625, -15329.4736328125, 136501.5, -187500.015625, -141378.0, -187500.015625, -187500.015625, -0.10000000149011612, -0.6000000238418579, 0.718000054359436, 192.0, 252.0, 224.0, 237.0, 64.0, 22.0, 112.0, 0.0, 0.0, 0.0, 1.6137590064716692E9, 2021-02-19 16:23:26.471
27.0, -15553.37109375, 18564.912109375, -15146.591796875, 136690.59375, -187500.015625, -143468.78125, -187500.015625, -187500.015625, -0.10000000149011612, -0.6000000238418579, 0.718000054359436, 192.0, 0.0, 0.0, 0.0, 0.0, 0.0, 0.0, 0.0, 0.0, 0.0, 1.613759006474522E9, 2021-02-19 16:23:26.474
28.0, -15391.25390625, 18343.13671875, -15361.794921875, 136476.796875, -187500.015625, -142660.921875, -187500.015625, -187500.015625, -0.10000000149011612, -0.6000000238418579, 0.718000054359436, 192.0, 0.0, 0.0, 0.0, 0.0, 0.0, 0.0, 0.0, 0.0, 0.0, 1.6137590064785376E9, 2021-02-19 16:23:26.478
29.0, -15541.3017578125, 18118.703125, -15582.7197265625, 136248.875, -187500.015625, -140452.09375, -187500.015625, -187500.015625, -0.10000000149011612, -0.6000000238418579, 0.718000054359436, 192.0, 0.0, 0.0, 0.0, 0.0, 0.0, 0.0, 0.0, 0.0, 0.0, 1.6137590064835427E9, 2021-02-19 16:23:26.483
30.0, -15785.091796875, 18268.90625, -15438.505859375, 136388.9375, -187500.015625, -140953.109375, -187500.015625, -187500.015625, -0.10000000149011612, -0.6000000238418579, 0.718000054359436, 192.0, 0.0, 0.0, 0.0, 0.0, 0.0, 0.0, 0.0, 0.0, 0.0, 1.6137590064865453E9, 2021-02-19 16:23:26.486
31.0, -15654.87109375, 18501.72265625, -15209.9365234375, 136624.0, -187500.015625, -143204.65625, -187500.015625, -187500.015625, -0.10000000149011612, -0.6000000238418579, 0.718000054359436, 192.0, 0.0, 0.0, 0.0, 0.0, 0.0, 0.0, 0.0, 0.0, 0.0, 1.613759006490564E9, 2021-02-19 16:23:26.490
32.0, -15427.240234375, 18378.765625, -15330.435546875, 136509.09375, -187500.015625, -142972.640625, -187500.015625, -187500.015625, -0.10000000149011612, -0.6000000238418579, 0.718000054359436, 192.0, 0.0, 0.0, 0.0, 0.0, 0.0, 0.0, 0.0, 0.0, 0.0, 1.6137590064935277E9, 2021-02-19 16:23:26.493
33.0, -15495.7265625, 18138.484375, -15567.6318359375, 136268.8125, -187500.015625, -140691.625, -187500.015625, -187500.015625, -0.10000000149011612, -0.6000000238418579, 0.718000054359436, 192.0, 0.0, 0.0, 0.0, 0.0, 0.0, 0.0, 0.0, 0.0, 0.0, 1.6137590064965453E9, 2021-02-19 16:23:26.496
34.0, -15738.3994140625, 18258.87109375, -15454.15234375, 136376.4375, -187500.015625, -140601.234375, -187500.015625, -187500.015625, -0.10000000149011612, -0.6000000238418579, 0.718000054359436, 192.0, 0.0, 0.0, 0.0, 0.0, 0.0, 0.0, 0.0, 0.0, 0.0, 1.6137590064997923E9, 2021-02-19 16:23:26.499
35.0, -15662.2021484375, 18527.2265625, -15191.5634765625, 136644.125, -187500.015625, -142889.53125, -187500.015625, -187500.015625, -0.10000000149011612, -0.6000000238418579, 0.718000054359436, 192.0, 0.0, 0.0, 0.0, 0.0, 0.0, 0.0, 0.0, 0.0, 0.0, 1.6137590065035667E9, 2021-02-19 16:23:26.503
36.0, -15419.5068359375, 18442.53515625, -15272.923828125, 136569.28125, -187500.015625, -143241.734375, -187500.015625, -187500.015625, -0.10000000149011612, -0.6220000386238098, 0.7420000433921814, 192.0, 252.0, 224.0, 236.0, 144.0, 23.0, 48.0, 0.0, 0.0, 0.0, 1.6137590065065768E9, 2021-02-19 16:23:26.506
37.0, -15436.6953125, 18199.638671875, -15511.9541015625, 136328.359375, -187500.015625, -141037.0625, -187500.015625, -187500.015625, -0.10000000149011612, -0.6220000386238098, 0.7420000433921814, 192.0, 0.0, 0.0, 0.0, 0.0, 0.0, 0.0, 0.0, 0.0, 0.0, 1.6137590065097573E9, 2021-02-19 16:23:26.509
38.0, -15679.6142578125, 18231.669921875, -15483.8349609375, 136348.25, -187500.015625, -140351.03125, -187500.015625, -187500.015625, -0.10000000149011612, -0.6220000386238098, 0.7420000433921814, 192.0, 0.0, 0.0, 0.0, 0.0, 0.0, 0.0, 0.0, 0.0, 0.0, 1.6137590065177453E9, 2021-02-19 16:23:26.517
39.0, -15681.71484375, 18516.296875, -15204.6396484375, 136628.046875, -187500.015625, -142514.71875, -187500.015625, -187500.015625, -0.10000000149011612, -0.6220000386238098, 0.7420000433921814, 192.0, 0.0, 0.0, 0.0, 0.0, 0.0, 0.0, 0.0, 0.0, 0.0, 1.6137590065205953E9, 2021-02-19 16:23:26.520
40.0, -15415.1259765625, 18521.638671875, -15197.30859375, 136642.15625, -187500.015625, -143444.53125, -187500.015625, -187500.015625, -0.10000000149011612, -0.6220000386238098, 0.7420000433921814, 192.0, 0.0, 0.0, 0.0, 0.0, 0.0, 0.0, 0.0, 0.0, 0.0, 1.6137590065235813E9, 2021-02-19 16:23:26.523
41.0, -15366.689453125, 18272.439453125, -15443.0654296875, 136398.625, -187500.015625, -141460.765625, -187500.015625, -187500.015625, -0.10000000149011612, -0.6220000386238098, 0.7420000433921814, 192.0, 0.0, 0.0, 0.0, 0.0, 0.0, 0.0, 0.0, 0.0, 0.0, 1.6137590065276139E9, 2021-02-19 16:23:26.527
42.0, -15598.923828125, 18228.875, -15489.1103515625, 136344.828125, -187500.015625, -140236.03125, -187500.015625, -187500.015625, -0.10000000149011612, -0.6220000386238098, 0.7420000433921814, 192.0, 0.0, 0.0, 0.0, 0.0, 0.0, 0.0, 0.0, 0.0, 0.0, 1.6137590065306108E9, 2021-02-19 16:23:26.530
43.0, -15672.5732421875, 18511.892578125, -15212.2392578125, 136621.296875, -187500.015625, -142141.90625, -187500.015625, -187500.015625, -0.10000000149011612, -0.6220000386238098, 0.7420000433921814, 192.0, 0.0, 0.0, 0.0, 0.0, 0.0, 0.0, 0.0, 0.0, 0.0, 1.6137590065335777E9, 2021-02-19 16:23:26.533
44.0, -15428.89453125, 18552.037109375, -15170.5302734375, 136669.328125, -187500.015625, -143577.40625, -187500.015625, -187500.015625, -0.10000000149011612, -0.6220000386238098, 0.7420000433921814, 192.0, 0.0, 0.0, 0.0, 0.0, 0.0, 0.0, 0.0, 0.0, 0.0, 1.6137590065376844E9, 2021-02-19 16:23:26.537
45.0, -15364.8564453125, 18289.046875, -15429.3193359375, 136411.125, -187500.015625, -141923.890625, -187500.015625, -187500.015625, -0.10000000149011612, -0.6220000386238098, 0.7420000433921814, 192.0, 0.0, 0.0, 0.0, 0.0, 0.0, 0.0, 0.0, 0.0, 0.0, 1.6137590065405996E9, 2021-02-19 16:23:26.540
46.0, -15547.671875, 18205.5625, -15513.09375, 136320.203125, -187500.015625, -140255.65625, -187500.015625, -187500.015625, -0.1080000028014183, -0.6240000128746033, 0.7540000081062317, 192.0, 252.0, 160.0, 236.0, 128.0, 23.0, 144.0, 0.0, 0.0, 0.0, 1.6137590065436296E9, 2021-02-19 16:23:26.543
47.0, -15719.6240234375, 18421.32421875, -15302.9423828125, 136527.0, -187500.015625, -141744.0, -187500.015625, -187500.015625, -0.1080000028014183, -0.6240000128746033, 0.7540000081062317, 192.0, 0.0, 0.0, 0.0, 0.0, 0.0, 0.0, 0.0, 0.0, 0.0, 1.6137590065466301E9, 2021-02-19 16:23:26.546
48.0, -15509.4951171875, 18536.123046875, -15188.0546875, 136649.078125, -187500.015625, -143583.40625, -187500.015625, -187500.015625, -0.1080000028014183, -0.6240000128746033, 0.7540000081062317, 192.0, 0.0, 0.0, 0.0, 0.0, 0.0, 0.0, 0.0, 0.0, 0.0, 1.6137590065508883E9, 2021-02-19 16:23:26.550
49.0, -15375.7421875, 18322.751953125, -15394.9423828125, 136444.546875, -187500.015625, -142379.125, -187500.015625, -187500.015625, -0.1080000028014183, -0.6240000128746033, 0.7540000081062317, 192.0, 0.0, 0.0, 0.0, 0.0, 0.0, 0.0, 0.0, 0.0, 0.0, 1.613759006553594E9, 2021-02-19 16:23:26.553
50.0, -15525.029296875, 18159.09375, -15558.5791015625, 136275.859375, -187500.015625, -140368.546875, -187500.015625, -187500.015625, -0.1080000028014183, -0.6240000128746033, 0.7540000081062317, 192.0, 0.0, 0.0, 0.0, 0.0, 0.0, 0.0, 0.0, 0.0, 0.0, 1.61375900655662E9, 2021-02-19 16:23:26.556
51.0, -15724.0498046875, 18383.03515625, -15342.1474609375, 136486.03125, -187500.015625, -141350.765625, -187500.015625, -187500.015625, -0.1080000028014183, -0.6240000128746033, 0.7540000081062317, 192.0, 0.0, 0.0, 0.0, 0.0, 0.0, 0.0, 0.0, 0.0, 0.0, 1.613759006559687E9, 2021-02-19 16:23:26.559
52.0, -15549.68359375, 18550.13671875, -15177.83984375, 136657.0, -187500.015625, -143483.375, -187500.015625, -187500.015625, -0.1080000028014183, -0.6240000128746033, 0.7540000081062317, 192.0, 0.0, 0.0, 0.0, 0.0, 0.0, 0.0, 0.0, 0.0, 0.0, 1.613759006563614E9, 2021-02-19 16:23:26.563
53.0, -15391.5, 18334.041015625, -15389.33203125, 136449.59375, -187500.015625, -142805.09375, -187500.015625, -187500.015625, -0.1080000028014183, -0.6240000128746033, 0.7540000081062317, 192.0, 0.0, 0.0, 0.0, 0.0, 0.0, 0.0, 0.0, 0.0, 0.0, 1.6137590065668693E9, 2021-02-19 16:23:26.566
54.0, -15509.7626953125, 18142.708984375, -15580.3271484375, 136256.921875, -187500.015625, -140603.328125, -187500.015625, -187500.015625, -0.1080000028014183, -0.6240000128746033, 0.7540000081062317, 192.0, 0.0, 0.0, 0.0, 0.0, 0.0, 0.0, 0.0, 0.0, 0.0, 1.6137590065717049E9, 2021-02-19 16:23:26.571
55.0, -15717.388671875, 18322.73046875, -15406.8330078125, 136424.9375, -187500.015625, -141000.3125, -187500.015625, -187500.015625, -0.1080000028014183, -0.6240000128746033, 0.7540000081062317, 192.0, 0.0, 0.0, 0.0, 0.0, 0.0, 0.0, 0.0, 0.0, 0.0, 1.613759006574685E9, 2021-02-19 16:23:26.574
56.0, -15591.7265625, 18562.36328125, -15169.94921875, 136663.453125, -187500.015625, -143292.484375, -187500.015625, -187500.015625, -0.10400000214576721, -0.6300000548362732, 0.7620000243186951, 192.0, 252.0, 192.0, 236.0, 80.0, 23.0, 208.0, 0.0, 0.0, 0.0, 1.6137590065786889E9, 2021-02-19 16:23:26.578
57.0, -15347.4892578125, 18453.7109375, -15271.6279296875, 136563.984375, -187500.015625, -143225.96875, -187500.015625, -187500.015625, -0.10400000214576721, -0.6300000548362732, 0.7620000243186951, 192.0, 0.0, 0.0, 0.0, 0.0, 0.0, 0.0, 0.0, 0.0, 0.0, 1.6137590065817091E9, 2021-02-19 16:23:26.581
58.0, -15413.0029296875, 18200.64453125, -15521.1845703125, 136312.328125, -187500.015625, -140984.671875, -187500.015625, -187500.015625, -0.10400000214576721, -0.6300000548362732, 0.7620000243186951, 192.0, 0.0, 0.0, 0.0, 0.0, 0.0, 0.0, 0.0, 0.0, 0.0, 1.613759006584846E9, 2021-02-19 16:23:26.584
59.0, -15662.5146484375, 18287.03515625, -15440.2490234375, 136385.875, -187500.015625, -140772.90625, -187500.015625, -187500.015625, -0.10400000214576721, -0.6300000548362732, 0.7620000243186951, 192.0, 0.0, 0.0, 0.0, 0.0, 0.0, 0.0, 0.0, 0.0, 0.0, 1.6137590065879345E9, 2021-02-19 16:23:26.587
60.0, -15620.76171875, 18542.537109375, -15186.3779296875, 136640.875, -187500.015625, -143054.203125, -187500.015625, -187500.015625, -0.10400000214576721, -0.6300000548362732, 0.7620000243186951, 192.0, 0.0, 0.0, 0.0, 0.0, 0.0, 0.0, 0.0, 0.0, 0.0, 1.6137590065916843E9, 2021-02-19 16:23:26.591
61.0, -15393.7353515625, 18455.74609375, -15267.5146484375, 136563.03125, -187500.015625, -143556.46875, -187500.015625, -187500.015625, -0.10400000214576721, -0.6300000548362732, 0.7620000243186951, 192.0, 0.0, 0.0, 0.0, 0.0, 0.0, 0.0, 0.0, 0.0, 0.0, 1.6137590065966957E9, 2021-02-19 16:23:26.596
62.0, -15418.5458984375, 18184.57421875, -15535.9375, 136293.953125, -187500.015625, -141411.84375, -187500.015625, -187500.015625, -0.10400000214576721, -0.6300000548362732, 0.7620000243186951, 192.0, 0.0, 0.0, 0.0, 0.0, 0.0, 0.0, 0.0, 0.0, 0.0, 1.6137590065997229E9, 2021-02-19 16:23:26.599
63.0, -15664.8837890625, 18218.4375, -15506.09765625, 136315.328125, -187500.015625, -140604.890625, -187500.015625, -187500.015625, -0.10400000214576721, -0.6300000548362732, 0.7620000243186951, 192.0, 0.0, 0.0, 0.0, 0.0, 0.0, 0.0, 0.0, 0.0, 0.0, 1.613759006603683E9, 2021-02-19 16:23:26.603
64.0, -15669.5556640625, 18523.44921875, -15208.3720703125, 136615.3125, -187500.015625, -142734.59375, -187500.015625, -187500.015625, -0.10400000214576721, -0.6300000548362732, 0.7620000243186951, 192.0, 0.0, 0.0, 0.0, 0.0, 0.0, 0.0, 0.0, 0.0, 0.0, 1.6137590066067903E9, 2021-02-19 16:23:26.606
65.0, -15403.01171875, 18523.091796875, -15208.1484375, 136623.25, -187500.015625, -143812.921875, -187500.015625, -187500.015625, -0.10400000214576721, -0.6300000548362732, 0.7620000243186951, 192.0, 0.0, 0.0, 0.0, 0.0, 0.0, 0.0, 0.0, 0.0, 0.0, 1.6137590066096847E9, 2021-02-19 16:23:26.609
66.0, -15373.9091796875, 18255.65234375, -15472.8828125, 136359.9375, -187500.015625, -141904.78125, -187500.015625, -187500.015625, -0.10400000214576721, -0.6340000033378601, 0.7580000162124634, 192.0, 252.0, 192.0, 236.0, 48.0, 23.0, 176.0, 0.0, 0.0, 0.0, 1.613759006613692E9, 2021-02-19 16:23:26.613
67.0, -15578.271484375, 18236.654296875, -15494.0498046875, 136333.59375, -187500.015625, -140573.9375, -187500.015625, -187500.015625, -0.10400000214576721, -0.6340000033378601, 0.7580000162124634, 192.0, 0.0, 0.0, 0.0, 0.0, 0.0, 0.0, 0.0, 0.0, 0.0, 1.6137590066166985E9, 2021-02-19 16:23:26.616
68.0, -15657.75390625, 18510.865234375, -15227.4609375, 136602.328125, -187500.015625, -142364.78125, -187500.015625, -187500.015625, -0.10400000214576721, -0.6340000033378601, 0.7580000162124634, 192.0, 0.0, 0.0, 0.0, 0.0, 0.0, 0.0, 0.0, 0.0, 0.0, 1.6137590066197665E9, 2021-02-19 16:23:26.619
69.0, -15440.427734375, 18551.544921875, -15185.751953125, 136653.171875, -187500.015625, -143862.546875, -187500.015625, -187500.015625, -0.10400000214576721, -0.6340000033378601, 0.7580000162124634, 192.0, 0.0, 0.0, 0.0, 0.0, 0.0, 0.0, 0.0, 0.0, 0.0, 1.6137590066238256E9, 2021-02-19 16:23:26.623
70.0, -15350.931640625, 18305.49609375, -15424.8935546875, 136414.1875, -187500.015625, -142361.40625, -187500.015625, -187500.015625, -0.10400000214576721, -0.6340000033378601, 0.7580000162124634, 192.0, 0.0, 0.0, 0.0, 0.0, 0.0, 0.0, 0.0, 0.0, 0.0, 1.613759006626723E9, 2021-02-19 16:23:26.626
71.0, -15545.8388671875, 18177.353515625, -15552.8798828125, 136279.03125, -187500.015625, -140588.375, -187500.015625, -187500.015625, -0.10400000214576721, -0.6340000033378601, 0.7580000162124634, 192.0, 0.0, 0.0, 0.0, 0.0, 0.0, 0.0, 0.0, 0.0, 0.0, 1.6137590066297152E9, 2021-02-19 16:23:26.629
72.0, -15714.52734375, 18409.3203125, -15326.12109375, 136500.75, -187500.015625, -142037.0, -187500.015625, -187500.015625, -0.10400000214576721, -0.6340000033378601, 0.7580000162124634, 192.0, 0.0, 0.0, 0.0, 0.0, 0.0, 0.0, 0.0, 0.0, 0.0, 1.613759006633757E9, 2021-02-19 16:23:26.633
73.0, -15517.2509765625, 18536.255859375, -15197.62109375, 136632.390625, -187500.015625, -144081.59375, -187500.015625, -187500.015625, -0.10400000214576721, -0.6340000033378601, 0.7580000162124634, 192.0, 0.0, 0.0, 0.0, 0.0, 0.0, 0.0, 0.0, 0.0, 0.0, 1.6137590066367483E9, 2021-02-19 16:23:26.636
74.0, -15351.1552734375, 18369.625, -15355.2900390625, 136473.640625, -187500.015625, -142980.4375, -187500.015625, -187500.015625, -0.10400000214576721, -0.6340000033378601, 0.7580000162124634, 192.0, 0.0, 0.0, 0.0, 0.0, 0.0, 0.0, 0.0, 0.0, 0.0, 1.6137590066397235E9, 2021-02-19 16:23:26.639
75.0, -15501.1796875, 18159.80859375, -15562.423828125, 136259.109375, -187500.015625, -140899.0625, -187500.015625, -187500.015625, -0.10400000214576721, -0.6340000033378601, 0.7580000162124634, 192.0, 0.0, 0.0, 0.0, 0.0, 0.0, 0.0, 0.0, 0.0, 0.0, 1.6137590066437197E9, 2021-02-19 16:23:26.643
76.0, -15729.01171875, 18354.58203125, -15374.333984375, 136441.390625, -187500.015625, -141754.5625, -187500.015625, -187500.015625, -0.1120000034570694, -0.6360000371932983, 0.7600000500679016, 192.0, 252.0, 128.0, 236.0, 32.0, 23.0, 192.0, 0.0, 0.0, 0.0, 1.613759006646828E9, 2021-02-19 16:23:26.646
77.0, -15557.3056640625, 18580.625, -15150.056640625, 136669.53125, -187500.015625, -143976.875, -187500.015625, -187500.015625, -0.1120000034570694, -0.6360000371932983, 0.7600000500679016, 192.0, 0.0, 0.0, 0.0, 0.0, 0.0, 0.0, 0.0, 0.0, 0.0, 1.6137590066499403E9, 2021-02-19 16:23:26.649
78.0, -15342.9296875, 18415.109375, -15308.4189453125, 136513.5625, -187500.015625, -143454.0, -187500.015625, -187500.015625, -0.1120000034570694, -0.6360000371932983, 0.7600000500679016, 192.0, 0.0, 0.0, 0.0, 0.0, 0.0, 0.0, 0.0, 0.0, 0.0, 1.6137590066537395E9, 2021-02-19 16:23:26.653
79.0, -15480.236328125, 18148.810546875, -15568.0791015625, 136246.96875, -187500.015625, -141209.078125, -187500.015625, -187500.015625, -0.1120000034570694, -0.6360000371932983, 0.7600000500679016, 192.0, 0.0, 0.0, 0.0, 0.0, 0.0, 0.0, 0.0, 0.0, 0.0, 1.61375900665675E9, 2021-02-19 16:23:26.656
80.0, -15736.4326171875, 18276.9765625, -15444.25, 136363.578125, -187500.015625, -141462.0, -187500.015625, -187500.015625, -0.1120000034570694, -0.6360000371932983, 0.7600000500679016, 192.0, 0.0, 0.0, 0.0, 0.0, 0.0, 0.0, 0.0, 0.0, 0.0, 1.613759006659757E9, 2021-02-19 16:23:26.659
81.0, -15658.201171875, 18504.31640625, -15219.01171875, 136591.703125, -187500.015625, -143772.703125, -187500.015625, -187500.015625, -0.1120000034570694, -0.6360000371932983, 0.7600000500679016, 192.0, 0.0, 0.0, 0.0, 0.0, 0.0, 0.0, 0.0, 0.0, 0.0, 1.613759006663756E9, 2021-02-19 16:23:26.663
82.0, -15401.5810546875, 18436.9921875, -15279.4951171875, 136535.828125, -187500.015625, -143832.890625, -187500.015625, -187500.015625, -0.1120000034570694, -0.6360000371932983, 0.7600000500679016, 192.0, 0.0, 0.0, 0.0, 0.0, 0.0, 0.0, 0.0, 0.0, 0.0, 1.613759006668775E9, 2021-02-19 16:23:26.668
83.0, -15456.4765625, 18161.41796875, -15551.359375, 136264.59375, -187500.015625, -141577.15625, -187500.015625, -187500.015625, -0.1120000034570694, -0.6360000371932983, 0.7600000500679016, 192.0, 0.0, 0.0, 0.0, 0.0, 0.0, 0.0, 0.0, 0.0, 0.0, 1.6137590066718137E9, 2021-02-19 16:23:26.671
84.0, -15706.97265625, 18250.064453125, -15469.0830078125, 136341.640625, -187500.015625, -141240.6875, -187500.015625, -187500.015625, -0.1120000034570694, -0.6360000371932983, 0.7600000500679016, 192.0, 0.0, 0.0, 0.0, 0.0, 0.0, 0.0, 0.0, 0.0, 0.0, 1.6137590066748345E9, 2021-02-19 16:23:26.674
85.0, -15656.30078125, 18548.908203125, -15175.716796875, 136633.953125, -187500.015625, -143523.265625, -187500.015625, -187500.015625, -0.1120000034570694, -0.6420000195503235, 0.7620000243186951, 192.0, 252.0, 128.0, 235.0, 240.0, 23.0, 208.0, 0.0, 0.0, 0.0, 1.6137590066787653E9, 2021-02-19 16:23:26.678
86.0, -15385.353515625, 18514.44140625, -15203.1416015625, 136606.765625, -187500.015625, -144160.59375, -187500.015625, -187500.015625, -0.1120000034570694, -0.6420000195503235, 0.7620000243186951, 192.0, 0.0, 0.0, 0.0, 0.0, 0.0, 0.0, 0.0, 0.0, 0.0, 1.6137590066818545E9, 2021-02-19 16:23:26.681
87.0, -15393.7353515625, 18245.4609375, -15467.8310546875, 136340.890625, -187500.015625, -142046.1875, -187500.015625, -187500.015625, -0.1120000034570694, -0.6420000195503235, 0.7620000243186951, 192.0, 0.0, 0.0, 0.0, 0.0, 0.0, 0.0, 0.0, 0.0, 0.0, 1.6137590066858027E9, 2021-02-19 16:23:26.685
88.0, -15645.662109375, 18212.3125, -15503.236328125, 136298.03125, -187500.015625, -141123.703125, -187500.015625, -187500.015625, -0.1120000034570694, -0.6420000195503235, 0.7620000243186951, 192.0, 0.0, 0.0, 0.0, 0.0, 0.0, 0.0, 0.0, 0.0, 0.0, 1.6137590066888149E9, 2021-02-19 16:23:26.688
89.0, -15728.2294921875, 18474.56640625, -15245.6103515625, 136553.75, -187500.015625, -143193.71875, -187500.015625, -187500.015625, -0.1120000034570694, -0.6420000195503235, 0.7620000243186951, 192.0, 0.0, 0.0, 0.0, 0.0, 0.0, 0.0, 0.0, 0.0, 0.0, 1.6137590066918068E9, 2021-02-19 16:23:26.691
90.0, -15467.9658203125, 18495.912109375, -15219.01171875, 136585.15625, -187500.015625, -144364.21875, -187500.015625, -187500.015625, -0.1120000034570694, -0.6420000195503235, 0.7620000243186951, 192.0, 0.0, 0.0, 0.0, 0.0, 0.0, 0.0, 0.0, 0.0, 0.0, 1.6137590066958213E9, 2021-02-19 16:23:26.695
91.0, -15446.3740234375, 18215.0625, -15494.0947265625, 136308.375, -187500.015625, -142511.90625, -187500.015625, -187500.015625, -0.1120000034570694, -0.6420000195503235, 0.7620000243186951, 192.0, 0.0, 0.0, 0.0, 0.0, 0.0, 0.0, 0.0, 0.0, 0.0, 1.6137590066988192E9, 2021-02-19 16:23:26.698
92.0, -15633.4130859375, 18206.30078125, -15502.0517578125, 136289.578125, -187500.015625, -141083.71875, -187500.015625, -187500.015625, -0.1120000034570694, -0.6420000195503235, 0.7620000243186951, 192.0, 0.0, 0.0, 0.0, 0.0, 0.0, 0.0, 0.0, 0.0, 0.0, 1.6137590067018063E9, 2021-02-19 16:23:26.701
93.0, -15747.787109375, 18433.884765625, -15278.3330078125, 136508.328125, -187500.015625, -142803.59375, -187500.015625, -187500.015625, -0.1120000034570694, -0.6420000195503235, 0.7620000243186951, 192.0, 0.0, 0.0, 0.0, 0.0, 0.0, 0.0, 0.0, 0.0, 0.0, 1.6137590067058797E9, 2021-02-19 16:23:26.705
94.0, -15533.6572265625, 18516.54296875, -15194.693359375, 136596.921875, -187500.015625, -144438.0, -187500.015625, -187500.015625, -0.1120000034570694, -0.6420000195503235, 0.7620000243186951, 192.0, 0.0, 0.0, 0.0, 0.0, 0.0, 0.0, 0.0, 0.0, 0.0, 1.61375900670898E9, 2021-02-19 16:23:26.708
95.0, -15421.7646484375, 18295.37109375, -15411.884765625, 136381.71875, -187500.015625, -142980.171875, -187500.015625, -187500.015625, -0.11000000685453415, -0.6440000534057617, 0.7600000500679016, 192.0, 252.0, 144.0, 235.0, 224.0, 23.0, 192.0, 0.0, 0.0, 0.0, 1.6137590067119381E9, 2021-02-19 16:23:26.711
96.0, -15597.1806640625, 18161.171875, -15547.11328125, 136240.09375, -187500.015625, -141130.03125, -187500.015625, -187500.015625, -0.11000000685453415, -0.6440000534057617, 0.7600000500679016, 192.0, 0.0, 0.0, 0.0, 0.0, 0.0, 0.0, 0.0, 0.0, 0.0, 1.6137590067158186E9, 2021-02-19 16:23:26.715
97.0, -15784.5556640625, 18372.552734375, -15343.5556640625, 136438.171875, -187500.015625, -142373.90625, -187500.015625, -187500.015625, -0.11000000685453415, -0.6440000534057617, 0.7600000500679016, 192.0, 0.0, 0.0, 0.0, 0.0, 0.0, 0.0, 0.0, 0.0, 0.0, 1.6137590067189596E9, 2021-02-19 16:23:26.718
98.0, -15597.29296875, 18519.873046875, -15194.849609375, 136588.578125, -187500.015625, -144352.40625, -187500.015625, -187500.015625, -0.11000000685453415, -0.6440000534057617, 0.7600000500679016, 192.0, 0.0, 0.0, 0.0, 0.0, 0.0, 0.0, 0.0, 0.0, 0.0, 1.613759006721832E9, 2021-02-19 16:23:26.721
99.0, -15435.48828125, 18330.462890625, -15379.4296875, 136405.3125, -187500.015625, -143377.96875, -187500.015625, -187500.015625, -0.11000000685453415, -0.6440000534057617, 0.7600000500679016, 192.0, 0.0, 0.0, 0.0, 0.0, 0.0, 0.0, 0.0, 0.0, 0.0, 1.613759006725818E9, 2021-02-19 16:23:26.725
100.0, -15548.990234375, 18170.068359375, -15540.5419921875, 136239.640625, -187500.015625, -141251.796875, -187500.015625, -187500.015625, -0.11000000685453415, -0.6440000534057617, 0.7600000500679016, 192.0, 0.0, 0.0, 0.0, 0.0, 0.0, 0.0, 0.0, 0.0, 0.0, 1.6137590067288532E9, 2021-02-19 16:23:26.728
101.0, -15749.7763671875, 18356.32421875, -15358.62109375, 136413.78125, -187500.015625, -141951.359375, -187500.015625, -187500.015625, -0.11000000685453415, -0.6440000534057617, 0.7600000500679016, 192.0, 0.0, 0.0, 0.0, 0.0, 0.0, 0.0, 0.0, 0.0, 0.0, 1.6137590067318892E9, 2021-02-19 16:23:26.731
102.0, -15618.4150390625, 18554.62890625, -15159.109375, 136612.359375, -187500.015625, -144154.890625, -187500.015625, -187500.015625, -0.11000000685453415, -0.6440000534057617, 0.7600000500679016, 192.0, 0.0, 0.0, 0.0, 0.0, 0.0, 0.0, 0.0, 0.0, 0.0, 1.6137590067398667E9, 2021-02-19 16:23:26.739
103.0, -15403.078125, 18415.9140625, -15291.0732421875, 136484.34375, -187500.015625, -143738.515625, -187500.015625, -187500.015625, -0.11000000685453415, -0.6440000534057617, 0.7600000500679016, 192.0, 0.0, 0.0, 0.0, 0.0, 0.0, 0.0, 0.0, 0.0, 0.0, 1.6137590067429771E9, 2021-02-19 16:23:26.742
104.0, -15483.8349609375, 18196.46484375, -15508.310546875, 136265.8125, -187500.015625, -141493.828125, -187500.015625, -187500.015625, -0.11000000685453415, -0.6440000534057617, 0.7600000500679016, 192.0, 0.0, 0.0, 0.0, 0.0, 0.0, 0.0, 0.0, 0.0, 0.0, 1.613759006746879E9, 2021-02-19 16:23:26.746
105.0, -15718.2822265625, 18317.3203125, -15393.7578125, 136372.546875, -187500.015625, -141590.5625, -187500.015625, -187500.015625, -0.11400000751018524, -0.6460000276565552, 0.7640000581741333, 192.0, 252.0, 112.0, 235.0, 208.0, 23.0, 224.0, 0.0, 0.0, 0.0, 1.6137590067498777E9, 2021-02-19 16:23:26.749
106.0, -15647.8076171875, 18559.30078125, -15157.365234375, 136611.734375, -187500.015625, -143878.421875, -187500.015625, -187500.015625, -0.11400000751018524, -0.6460000276565552, 0.7640000581741333, 192.0, 0.0, 0.0, 0.0, 0.0, 0.0, 0.0, 0.0, 0.0, 0.0, 1.613759006753888E9, 2021-02-19 16:23:26.753
107.0, -15387.2978515625, 18488.06640625, -15225.716796875, 136547.3125, -187500.015625, -144056.734375, -187500.015625, -187500.015625, -0.11400000751018524, -0.6460000276565552, 0.7640000581741333, 192.0, 0.0, 0.0, 0.0, 0.0, 0.0, 0.0, 0.0, 0.0, 0.0, 1.6137590067568817E9, 2021-02-19 16:23:26.756
108.0, -15450.798828125, 18177.443359375, -15533.8583984375, 136239.78125, -187500.015625, -141808.890625, -187500.015625, -187500.015625, -0.11400000751018524, -0.6460000276565552, 0.7640000581741333, 192.0, 0.0, 0.0, 0.0, 0.0, 0.0, 0.0, 0.0, 0.0, 0.0, 1.6137590067598832E9, 2021-02-19 16:23:26.759
109.0, -15715.48828125, 18248.208984375, -15470.78125, 136297.875, -187500.015625, -141298.0625, -187500.015625, -187500.015625, -0.11400000751018524, -0.6460000276565552, 0.7640000581741333, 192.0, 0.0, 0.0, 0.0, 0.0, 0.0, 0.0, 0.0, 0.0, 0.0, 1.613759006763943E9, 2021-02-19 16:23:26.763
110.0, -15667.3427734375, 18567.458984375, -15154.794921875, 136614.546875, -187500.015625, -143516.015625, -187500.015625, -187500.015625, -0.11400000751018524, -0.6460000276565552, 0.7640000581741333, 192.0, 0.0, 0.0, 0.0, 0.0, 0.0, 0.0, 0.0, 0.0, 0.0, 1.6137590067668843E9, 2021-02-19 16:23:26.766
111.0, -15389.935546875, 18534.9375, -15181.908203125, 136593.984375, -187500.015625, -144281.3125, -187500.015625, -187500.015625, -0.11400000751018524, -0.6460000276565552, 0.7640000581741333, 192.0, 0.0, 0.0, 0.0, 0.0, 0.0, 0.0, 0.0, 0.0, 0.0, 1.6137590067708883E9, 2021-02-19 16:23:26.770
112.0, -15384.5263671875, 18268.6171875, -15442.3505859375, 136330.125, -187500.015625, -142209.8125, -187500.015625, -187500.015625, -0.11400000751018524, -0.6460000276565552, 0.7640000581741333, 192.0, 0.0, 0.0, 0.0, 0.0, 0.0, 0.0, 0.0, 0.0, 0.0, 1.6137590067739046E9, 2021-02-19 16:23:26.773
113.0, -15600.8916015625, 18288.173828125, -15424.8486328125, 136339.84375, -187500.015625, -141148.09375, -187500.015625, -187500.015625, -0.11400000751018524, -0.6460000276565552, 0.7640000581741333, 192.0, 0.0, 0.0, 0.0, 0.0, 0.0, 0.0, 0.0, 0.0, 0.0, 1.613759006776922E9, 2021-02-19 16:23:26.776
114.0, -15663.2080078125, 18531.33984375, -15188.45703125, 136577.765625, -187500.015625, -143124.046875, -187500.015625, -187500.015625, -0.11400000751018524, -0.6460000276565552, 0.7640000581741333, 192.0, 0.0, 0.0, 0.0, 0.0, 0.0, 0.0, 0.0, 0.0, 0.0, 1.6137590067809308E9, 2021-02-19 16:23:26.780
115.0, -15435.3544921875, 18558.96484375, -15159.1982421875, 136612.734375, -187500.015625, -144395.453125, -187500.015625, -187500.015625, -0.11400000751018524, -0.6480000019073486, 0.7620000243186951, 192.0, 252.0, 112.0, 235.0, 192.0, 23.0, 208.0, 0.0, 0.0, 0.0, 1.613759006784435E9, 2021-02-19 16:23:26.784
116.0, -15361.4150390625, 18311.3984375, -15401.3798828125, 136372.125, -187500.015625, -142586.328125, -187500.015625, -187500.015625, -0.11400000751018524, -0.6480000019073486, 0.7620000243186951, 192.0, 0.0, 0.0, 0.0, 0.0, 0.0, 0.0, 0.0, 0.0, 0.0, 1.613759006787054E9, 2021-02-19 16:23:26.787
117.0, -15581.7578125, 18216.3125, -15498.05078125, 136266.984375, -187500.015625, -140944.890625, -187500.015625, -187500.015625, -0.11400000751018524, -0.6480000019073486, 0.7620000243186951, 192.0, 0.0, 0.0, 0.0, 0.0, 0.0, 0.0, 0.0, 0.0, 0.0, 1.6137590067909565E9, 2021-02-19 16:23:26.790
118.0, -15687.6162109375, 18521.28125, -15198.2470703125, 136562.53125, -187500.015625, -142582.328125, -187500.015625, -187500.015625, -0.11400000751018524, -0.6480000019073486, 0.7620000243186951, 192.0, 0.0, 0.0, 0.0, 0.0, 0.0, 0.0, 0.0, 0.0, 0.0, 1.6137590067939353E9, 2021-02-19 16:23:26.793
119.0, -15434.1474609375, 18626.021484375, -15092.076171875, 136675.296875, -187500.015625, -144331.71875, -187500.015625, -187500.015625, -0.11400000751018524, -0.6480000019073486, 0.7620000243186951, 192.0, 0.0, 0.0, 0.0, 0.0, 0.0, 0.0, 0.0, 0.0, 0.0, 1.6137590067969208E9, 2021-02-19 16:23:26.796
120.0, -15333.162109375, 18362.60546875, -15349.9931640625, 136419.375, -187500.015625, -143009.078125, -187500.015625, -187500.015625, -0.11400000751018524, -0.6480000019073486, 0.7620000243186951, 192.0, 0.0, 0.0, 0.0, 0.0, 0.0, 0.0, 0.0, 0.0, 0.0, 1.6137590068011055E9, 2021-02-19 16:23:26.801
121.0, -15516.5361328125, 18214.861328125, -15497.24609375, 136266.6875, -187500.015625, -141180.234375, -187500.015625, -187500.015625, -0.11400000751018524, -0.6480000019073486, 0.7620000243186951, 192.0, 0.0, 0.0, 0.0, 0.0, 0.0, 0.0, 0.0, 0.0, 0.0, 1.61375900680394E9, 2021-02-19 16:23:26.803
122.0, -15701.4736328125, 18440.478515625, -15279.5849609375, 136479.84375, -187500.015625, -142270.765625, -187500.015625, -187500.015625, -0.11400000751018524, -0.6480000019073486, 0.7620000243186951, 192.0, 0.0, 0.0, 0.0, 0.0, 0.0, 0.0, 0.0, 0.0, 0.0, 1.6137590068069513E9, 2021-02-19 16:23:26.806
123.0, -15520.0673828125, 18589.720703125, -15133.29296875, 136632.671875, -187500.015625, -144320.5, -187500.015625, -187500.015625, -0.11400000751018524, -0.6480000019073486, 0.7620000243186951, 192.0, 0.0, 0.0, 0.0, 0.0, 0.0, 0.0, 0.0, 0.0, 0.0, 1.6137590068109496E9, 2021-02-19 16:23:26.810
124.0, -15376.6806640625, 18359.38671875, -15360.3642578125, 136409.984375, -187500.015625, -143442.515625, -187500.015625, -187500.015625, -0.11400000751018524, -0.6480000019073486, 0.7620000243186951, 192.0, 0.0, 0.0, 0.0, 0.0, 0.0, 0.0, 0.0, 0.0, 0.0, 1.6137590068139625E9, 2021-02-19 16:23:26.813
125.0, -15515.5078125, 18166.423828125, -15550.33203125, 136213.375, -187500.015625, -141253.1875, -187500.015625, -187500.015625, -0.1080000028014183, -0.6440000534057617, 0.7660000324249268, 192.0, 252.0, 160.0, 235.0, 224.0, 23.0, 240.0, 0.0, 0.0, 0.0, 1.6137590068170016E9, 2021-02-19 16:23:26.817
126.0, -15727.8271484375, 18360.392578125, -15364.72265625, 136393.109375, -187500.015625, -141827.484375, -187500.015625, -187500.015625, -0.1080000028014183, -0.6440000534057617, 0.7660000324249268, 192.0, 0.0, 0.0, 0.0, 0.0, 0.0, 0.0, 0.0, 0.0, 0.0, 1.6137590068210135E9, 2021-02-19 16:23:26.821
127.0, -15570.0458984375, 18606.10546875, -15121.9384765625, 136641.265625, -187500.015625, -144066.75, -187500.015625, -187500.015625, -0.1080000028014183, -0.6440000534057617, 0.7660000324249268, 192.0, 0.0, 0.0, 0.0, 0.0, 0.0, 0.0, 0.0, 0.0, 0.0, 1.6137590068241231E9, 2021-02-19 16:23:26.824
128.0, -15344.0693359375, 18465.802734375, -15255.9140625, 136510.5, -187500.015625, -143770.375, -187500.015625, -187500.015625, -0.1080000028014183, -0.6440000534057617, 0.7660000324249268, 192.0, 0.0, 0.0, 0.0, 0.0, 0.0, 0.0, 0.0, 0.0, 0.0, 1.6137590068270001E9, 2021-02-19 16:23:26.827
129.0, -15423.396484375, 18229.166015625, -15488.931640625, 136272.40625, -187500.015625, -141499.765625, -187500.015625, -187500.015625, -0.1080000028014183, -0.6440000534057617, 0.7660000324249268, 192.0, 0.0, 0.0, 0.0, 0.0, 0.0, 0.0, 0.0, 0.0, 0.0, 1.613759006830021E9, 2021-02-19 16:23:26.830
130.0, -15672.2822265625, 18320.181640625, -15400.3291015625, 136352.15625, -187500.015625, -141460.96875, -187500.015625, -187500.015625, -0.1080000028014183, -0.6440000534057617, 0.7660000324249268, 192.0, 0.0, 0.0, 0.0, 0.0, 0.0, 0.0, 0.0, 0.0, 0.0, 1.6137590068340952E9, 2021-02-19 16:23:26.834
131.0, -15645.4384765625, 18536.3671875, -15187.9423828125, 136566.109375, -187500.015625, -143710.0, -187500.015625, -187500.015625, -0.1080000028014183, -0.6440000534057617, 0.7660000324249268, 192.0, 0.0, 0.0, 0.0, 0.0, 0.0, 0.0, 0.0, 0.0, 0.0, 1.6137590068379736E9, 2021-02-19 16:23:26.837
132.0, -15391.4111328125, 18494.056640625, -15226.6787109375, 136531.296875, -187500.015625, -144002.671875, -187500.015625, -187500.015625, -0.1080000028014183, -0.6440000534057617, 0.7660000324249268, 192.0, 0.0, 0.0, 0.0, 0.0, 0.0, 0.0, 0.0, 0.0, 0.0, 1.613759006842064E9, 2021-02-19 16:23:26.842
133.0, -15396.9091796875, 18246.599609375, -15471.67578125, 136286.765625, -187500.015625, -141795.453125, -187500.015625, -187500.015625, -0.1080000028014183, -0.6440000534057617, 0.7660000324249268, 192.0, 0.0, 0.0, 0.0, 0.0, 0.0, 0.0, 0.0, 0.0, 0.0, 1.6137590068459861E9, 2021-02-19 16:23:26.845
134.0, -15663.341796875, 18239.71484375, -15483.208984375, 136269.171875, -187500.015625, -141135.953125, -187500.015625, -187500.015625, -0.1080000028014183, -0.6440000534057617, 0.7660000324249268, 192.0, 0.0, 0.0, 0.0, 0.0, 0.0, 0.0, 0.0, 0.0, 0.0, 1.613759006849008E9, 2021-02-19 16:23:26.849
135.0, -15705.005859375, 18490.189453125, -15238.1669921875, 136514.421875, -187500.015625, -143259.234375, -187500.015625, -187500.015625, -0.1120000034570694, -0.6440000534057617, 0.7680000066757202, 192.0, 252.0, 128.0, 235.0, 224.0, 24.0, 0.0, 0.0, 0.0, 0.0, 1.613759006853006E9, 2021-02-19 16:23:26.853
136.0, -15446.10546875, 18494.056640625, -15232.087890625, 136527.609375, -187500.015625, -144121.359375, -187500.015625, -187500.015625, -0.1120000034570694, -0.6440000534057617, 0.7680000066757202, 192.0, 0.0, 0.0, 0.0, 0.0, 0.0, 0.0, 0.0, 0.0, 0.0, 1.6137590068560805E9, 2021-02-19 16:23:26.856
137.0, -15408.755859375, 18242.845703125, -15481.2197265625, 136281.046875, -187500.015625, -142106.828125, -187500.015625, -187500.015625, -0.1120000034570694, -0.6440000534057617, 0.7680000066757202, 192.0, 0.0, 0.0, 0.0, 0.0, 0.0, 0.0, 0.0, 0.0, 0.0, 1.613759006861019E9, 2021-02-19 16:23:26.861
138.0, -15617.140625, 18239.828125, -15487.43359375, 136266.9375, -187500.015625, -140903.265625, -187500.015625, -187500.015625, -0.1120000034570694, -0.6440000534057617, 0.7680000066757202, 192.0, 0.0, 0.0, 0.0, 0.0, 0.0, 0.0, 0.0, 0.0, 0.0, 1.613759006865044E9, 2021-02-19 16:23:26.865
139.0, -15682.51953125, 18516.921875, -15214.876953125, 136537.28125, -187500.015625, -142787.984375, -187500.015625, -187500.015625, -0.1120000034570694, -0.6440000534057617, 0.7680000066757202, 192.0, 0.0, 0.0, 0.0, 0.0, 0.0, 0.0, 0.0, 0.0, 0.0, 1.6137590068690312E9, 2021-02-19 16:23:26.869
140.0, -15443.37890625, 18561.625, -15167.625, 136588.84375, -187500.015625, -144168.5, -187500.015625, -187500.015625, -0.1120000034570694, -0.6440000534057617, 0.7680000066757202, 192.0, 0.0, 0.0, 0.0, 0.0, 0.0, 0.0, 0.0, 0.0, 0.0, 1.6137590068720353E9, 2021-02-19 16:23:26.872
141.0, -15349.9033203125, 18342.130859375, -15381.240234375, 136375.25, -187500.015625, -142490.0625, -187500.015625, -187500.015625, -0.1120000034570694, -0.6440000534057617, 0.7680000066757202, 192.0, 0.0, 0.0, 0.0, 0.0, 0.0, 0.0, 0.0, 0.0, 0.0, 1.6137590068750815E9, 2021-02-19 16:23:26.875
142.0, -15535.736328125, 18245.19140625, -15480.728515625, 136271.0, -187500.015625, -140815.734375, -187500.015625, -187500.015625, -0.1120000034570694, -0.6440000534057617, 0.7680000066757202, 192.0, 0.0, 0.0, 0.0, 0.0, 0.0, 0.0, 0.0, 0.0, 0.0, 1.6137590068870747E9, 2021-02-19 16:23:26.887
143.0, -15683.5927734375, 18478.4765625, -15254.5732421875, 136496.265625, -187500.015625, -142296.9375, -187500.015625, -187500.015625, -0.1120000034570694, -0.6440000534057617, 0.7680000066757202, 192.0, 0.0, 0.0, 0.0, 0.0, 0.0, 0.0, 0.0, 0.0, 0.0, 1.6137590068902907E9, 2021-02-19 16:23:26.890
144.0, -15487.5009765625, 18570.185546875, -15161.03125, 136595.59375, -187500.015625, -144086.84375, -187500.015625, -187500.015625, -0.10600000619888306, -0.6440000534057617, 0.7620000243186951, 192.0, 252.0, 176.0, 235.0, 224.0, 23.0, 208.0, 0.0, 0.0, 0.0, 1.6137590068931952E9, 2021-02-19 16:23:26.893
145.0, -15367.7177734375, 18334.755859375, -15392.2373046875, 136366.484375, -187500.015625, -142822.40625, -187500.015625, -187500.015625, -0.10600000619888306, -0.6440000534057617, 0.7620000243186951, 192.0, 0.0, 0.0, 0.0, 0.0, 0.0, 0.0, 0.0, 0.0, 0.0, 1.6137590068970597E9, 2021-02-19 16:23:26.897
146.0, -15530.013671875, 18190.98828125, -15534.931640625, 136216.515625, -187500.015625, -140789.28125, -187500.015625, -187500.015625, -0.10600000619888306, -0.6440000534057617, 0.7620000243186951, 192.0, 0.0, 0.0, 0.0, 0.0, 0.0, 0.0, 0.0, 0.0, 0.0, 1.6137590069000933E9, 2021-02-19 16:23:26.900
147.0, -15702.0107421875, 18439.607421875, -15294.4931640625, 136453.140625, -187500.015625, -141783.078125, -187500.015625, -187500.015625, -0.10600000619888306, -0.6440000534057617, 0.7620000243186951, 192.0, 0.0, 0.0, 0.0, 0.0, 0.0, 0.0, 0.0, 0.0, 0.0, 1.6137590069031365E9, 2021-02-19 16:23:26.903
148.0, -15511.5517578125, 18617.59375, -15116.88671875, 136636.640625, -187500.015625, -143890.40625, -187500.015625, -187500.015625, -0.10600000619888306, -0.6440000534057617, 0.7620000243186951, 192.0, 0.0, 0.0, 0.0, 0.0, 0.0, 0.0, 0.0, 0.0, 0.0, 1.6137590069241383E9, 2021-02-19 16:23:26.924
149.0, -15329.7421875, 18432.611328125, -15294.046875, 136461.171875, -187500.015625, -143143.625, -187500.015625, -187500.015625, -0.10600000619888306, -0.6440000534057617, 0.7620000243186951, 192.0, 0.0, 0.0, 0.0, 0.0, 0.0, 0.0, 0.0, 0.0, 0.0, 1.6137590069282475E9, 2021-02-19 16:23:26.928
150.0, -15448.921875, 18211.84375, -15512.958984375, 136237.921875, -187500.015625, -140912.1875, -187500.015625, -187500.015625, -0.10600000619888306, -0.6440000534057617, 0.7620000243186951, 192.0, 0.0, 0.0, 0.0, 0.0, 0.0, 0.0, 0.0, 0.0, 0.0, 1.613759006931253E9, 2021-02-19 16:23:26.931
151.0, -15719.9140625, 18310.369140625, -15420.7138671875, 136323.28125, -187500.015625, -141312.78125, -187500.015625, -187500.015625, -0.10600000619888306, -0.6440000534057617, 0.7620000243186951, 192.0, 0.0, 0.0, 0.0, 0.0, 0.0, 0.0, 0.0, 0.0, 0.0, 1.61375900693419E9, 2021-02-19 16:23:26.934
152.0, -15626.5283203125, 18544.861328125, -15186.646484375, 136558.328125, -187500.015625, -143564.109375, -187500.015625, -187500.015625, -0.10600000619888306, -0.6440000534057617, 0.7620000243186951, 192.0, 0.0, 0.0, 0.0, 0.0, 0.0, 0.0, 0.0, 0.0, 0.0, 1.6137590069371183E9, 2021-02-19 16:23:26.937
153.0, -15377.865234375, 18464.193359375, -15261.591796875, 136488.3125, -187500.015625, -143405.8125, -187500.015625, -187500.015625, -0.10600000619888306, -0.6440000534057617, 0.7620000243186951, 192.0, 0.0, 0.0, 0.0, 0.0, 0.0, 0.0, 0.0, 0.0, 0.0, 1.6137590069411285E9, 2021-02-19 16:23:26.941
154.0, -15412.2646484375, 18234.41796875, -15491.0771484375, 136260.234375, -187500.015625, -141124.421875, -187500.015625, -187500.015625, -0.10600000619888306, -0.6480000019073486, 0.7640000581741333, 192.0, 252.0, 176.0, 235.0, 192.0, 23.0, 224.0, 0.0, 0.0, 0.0, 1.6137590069441693E9, 2021-02-19 16:23:26.944
155.0, -15670.2041015625, 18302.904296875, -15427.1064453125, 136316.9375, -187500.015625, -140928.265625, -187500.015625, -187500.015625, -0.10600000619888306, -0.6480000019073486, 0.7640000581741333, 192.0, 0.0, 0.0, 0.0, 0.0, 0.0, 0.0, 0.0, 0.0, 0.0, 1.6137590069471931E9, 2021-02-19 16:23:26.947
156.0, -15628.49609375, 18573.091796875, -15158.818359375, 136585.40625, -187500.015625, -143189.671875, -187500.015625, -187500.015625, -0.10600000619888306, -0.6480000019073486, 0.7640000581741333, 192.0, 0.0, 0.0, 0.0, 0.0, 0.0, 0.0, 0.0, 0.0, 0.0, 1.6137590069511511E9, 2021-02-19 16:23:26.951
157.0, -15369.1259765625, 18515.669921875, -15211.3896484375, 136538.28125, -187500.015625, -143618.71875, -187500.015625, -187500.015625, -0.10600000619888306, -0.6480000019073486, 0.7640000581741333, 192.0, 0.0, 0.0, 0.0, 0.0, 0.0, 0.0, 0.0, 0.0, 0.0, 1.6137590069541278E9, 2021-02-19 16:23:26.954
158.0, -15395.9033203125, 18232.607421875, -15492.015625, 136256.359375, -187500.015625, -141419.5, -187500.015625, -187500.015625, -0.10600000619888306, -0.6480000019073486, 0.7640000581741333, 192.0, 0.0, 0.0, 0.0, 0.0, 0.0, 0.0, 0.0, 0.0, 0.0, 1.6137590069571412E9, 2021-02-19 16:23:26.957
159.0, -15647.13671875, 18255.7421875, -15472.0556640625, 136267.859375, -187500.015625, -140634.421875, -187500.015625, -187500.015625, -0.10600000619888306, -0.6480000019073486, 0.7640000581741333, 192.0, 0.0, 0.0, 0.0, 0.0, 0.0, 0.0, 0.0, 0.0, 0.0, 1.6137590069613864E9, 2021-02-19 16:23:26.961
160.0, -15688.2197265625, 18497.923828125, -15236.267578125, 136504.46875, -187500.015625, -142733.515625, -187500.015625, -187500.015625, -0.10600000619888306, -0.6480000019073486, 0.7640000581741333, 192.0, 0.0, 0.0, 0.0, 0.0, 0.0, 0.0, 0.0, 0.0, 0.0, 1.6137590069641354E9, 2021-02-19 16:23:26.964
161.0, -15450.3525390625, 18494.837890625, -15234.412109375, 136508.78125, -187500.015625, -143706.046875, -187500.015625, -187500.015625, -0.10600000619888306, -0.6480000019073486, 0.7640000581741333, 192.0, 0.0, 0.0, 0.0, 0.0, 0.0, 0.0, 0.0, 0.0, 0.0, 1.6137590069673495E9, 2021-02-19 16:23:26.967
162.0, -15386.91796875, 18276.216796875, -15447.0439453125, 136294.71875, -187500.015625, -141754.6875, -187500.015625, -187500.015625, -0.10600000619888306, -0.6480000019073486, 0.7640000581741333, 192.0, 0.0, 0.0, 0.0, 0.0, 0.0, 0.0, 0.0, 0.0, 0.0, 1.6137590069711652E9, 2021-02-19 16:23:26.971
163.0, -15608.7587890625, 18211.240234375, -15513.7421875, 136220.828125, -187500.015625, -140429.5625, -187500.015625, -187500.015625, -0.10600000619888306, -0.6480000019073486, 0.7640000581741333, 192.0, 0.0, 0.0, 0.0, 0.0, 0.0, 0.0, 0.0, 0.0, 0.0, 1.6137590069741588E9, 2021-02-19 16:23:26.974
164.0, -15732.05078125, 18442.736328125, -15289.0400390625, 136444.125, -187500.015625, -142193.390625, -187500.015625, -187500.015625, -0.1080000028014183, -0.6500000357627869, 0.7620000243186951, 192.0, 252.0, 160.0, 235.0, 176.0, 23.0, 208.0, 0.0, 0.0, 0.0, 1.6137590069771736E9, 2021-02-19 16:23:26.977
165.0, -15485.556640625, 18542.759765625, -15186.490234375, 136552.65625, -187500.015625, -143608.078125, -187500.015625, -187500.015625, -0.1080000028014183, -0.6500000357627869, 0.7620000243186951, 192.0, 0.0, 0.0, 0.0, 0.0, 0.0, 0.0, 0.0, 0.0, 0.0, 1.6137590069802098E9, 2021-02-19 16:23:26.980
166.0, -15391.5673828125, 18285.08984375, -15438.259765625, 136302.234375, -187500.015625, -142013.078125, -187500.015625, -187500.015625, -0.1080000028014183, -0.6500000357627869, 0.7620000243186951, 192.0, 0.0, 0.0, 0.0, 0.0, 0.0, 0.0, 0.0, 0.0, 0.0, 1.6137590069841657E9, 2021-02-19 16:23:26.984
167.0, -15596.287109375, 18150.107421875, -15574.2255859375, 136160.3125, -187500.015625, -140262.59375, -187500.015625, -187500.015625, -0.1080000028014183, -0.6500000357627869, 0.7620000243186951, 192.0, 0.0, 0.0, 0.0, 0.0, 0.0, 0.0, 0.0, 0.0, 0.0, 1.6137590069871702E9, 2021-02-19 16:23:26.987
168.0, -15764.908203125, 18408.986328125, -15322.4111328125, 136407.46875, -187500.015625, -141676.953125, -187500.015625, -187500.015625, -0.1080000028014183, -0.6500000357627869, 0.7620000243186951, 192.0, 0.0, 0.0, 0.0, 0.0, 0.0, 0.0, 0.0, 0.0, 0.0, 1.6137590069902415E9, 2021-02-19 16:23:26.990
169.0, -15496.2626953125, 18608.67578125, -15120.8203125, 136613.609375, -187500.015625, -143696.25, -187500.015625, -187500.015625, -0.1080000028014183, -0.6500000357627869, 0.7620000243186951, 192.0, 0.0, 0.0, 0.0, 0.0, 0.0, 0.0, 0.0, 0.0, 0.0, 1.613759006994499E9, 2021-02-19 16:23:26.994
170.0, -15331.150390625, 18399.240234375, -15323.595703125, 136411.84375, -187500.015625, -142518.09375, -187500.015625, -187500.015625, -0.1080000028014183, -0.6500000357627869, 0.7620000243186951, 192.0, 0.0, 0.0, 0.0, 0.0, 0.0, 0.0, 0.0, 0.0, 0.0, 1.6137590069973392E9, 2021-02-19 16:23:26.997
171.0, -15499.6826171875, 18181.779296875, -15540.2509765625, 136190.40625, -187500.015625, -140440.46875, -187500.015625, -187500.015625, -0.1080000028014183, -0.6500000357627869, 0.7620000243186951, 192.0, 0.0, 0.0, 0.0, 0.0, 0.0, 0.0, 0.0, 0.0, 0.0, 1.613759007000471E9, 2021-02-19 16:23:27.000
172.0, -15741.5283203125, 18357.80078125, -15369.595703125, 136355.09375, -187500.015625, -141314.234375, -187500.015625, -187500.015625, -0.1080000028014183, -0.6500000357627869, 0.7620000243186951, 192.0, 0.0, 0.0, 0.0, 0.0, 0.0, 0.0, 0.0, 0.0, 0.0, 1.6137590070031843E9, 2021-02-19 16:23:27.003
173.0, -15571.7666015625, 18579.595703125, -15149.3408203125, 136581.421875, -187500.015625, -143479.828125, -187500.015625, -187500.015625, -0.1080000028014183, -0.6500000357627869, 0.7620000243186951, 192.0, 0.0, 0.0, 0.0, 0.0, 0.0, 0.0, 0.0, 0.0, 0.0, 1.6137590070072134E9, 2021-02-19 16:23:27.007
174.0, -15351.1103515625, 18440.009765625, -15283.697265625, 136450.78125, -187500.015625, -142913.96875, -187500.015625, -187500.015625, -0.1120000034570694, -0.6460000276565552, 0.7680000066757202, 192.0, 252.0, 128.0, 235.0, 208.0, 24.0, 0.0, 0.0, 0.0, 0.0, 1.613759007010203E9, 2021-02-19 16:23:27.010
175.0, -15437.611328125, 18224.404296875, -15496.5087890625, 136233.078125, -187500.015625, -140686.03125, -187500.015625, -187500.015625, -0.1120000034570694, -0.6460000276565552, 0.7680000066757202, 192.0, 0.0, 0.0, 0.0, 0.0, 0.0, 0.0, 0.0, 0.0, 0.0, 1.6137590070142443E9, 2021-02-19 16:23:27.014
176.0, -15684.9560546875, 18359.208984375, -15367.9638671875, 136355.671875, -187500.015625, -140971.59375, -187500.015625, -187500.015625, -0.1120000034570694, -0.6460000276565552, 0.7680000066757202, 192.0, 0.0, 0.0, 0.0, 0.0, 0.0, 0.0, 0.0, 0.0, 0.0, 1.613759007017199E9, 2021-02-19 16:23:27.017
177.0, -15599.1923828125, 18568.77734375, -15160.71875, 136565.671875, -187500.015625, -143249.46875, -187500.015625, -187500.015625, -0.1120000034570694, -0.6460000276565552, 0.7680000066757202, 192.0, 0.0, 0.0, 0.0, 0.0, 0.0, 0.0, 0.0, 0.0, 0.0, 1.6137590070202286E9, 2021-02-19 16:23:27.020
178.0, -15382.7158203125, 18459.58984375, -15265.32421875, 136464.609375, -187500.015625, -143239.984375, -187500.015625, -187500.015625, -0.1120000034570694, -0.6460000276565552, 0.7680000066757202, 192.0, 0.0, 0.0, 0.0, 0.0, 0.0, 0.0, 0.0, 0.0, 0.0, 1.6137590070242012E9, 2021-02-19 16:23:27.024
179.0, -15418.6123046875, 18237.212890625, -15485.6455078125, 136241.515625, -187500.015625, -140988.734375, -187500.015625, -187500.015625, -0.1120000034570694, -0.6460000276565552, 0.7680000066757202, 192.0, 0.0, 0.0, 0.0, 0.0, 0.0, 0.0, 0.0, 0.0, 0.0, 1.6137590070272212E9, 2021-02-19 16:23:27.027
180.0, -15649.6181640625, 18340.4765625, -15388.326171875, 136332.734375, -187500.015625, -140661.953125, -187500.015625, -187500.015625, -0.1120000034570694, -0.6460000276565552, 0.7680000066757202, 192.0, 0.0, 0.0, 0.0, 0.0, 0.0, 0.0, 0.0, 0.0, 0.0, 1.6137590070333035E9, 2021-02-19 16:23:27.033
181.0, -15605.00390625, 18606.083984375, -15126.7880859375, 136598.328125, -187500.015625, -142921.078125, -187500.015625, -187500.015625, -0.1120000034570694, -0.6460000276565552, 0.7680000066757202, 192.0, 0.0, 0.0, 0.0, 0.0, 0.0, 0.0, 0.0, 0.0, 0.0, 1.6137590070372472E9, 2021-02-19 16:23:27.037
182.0, -15369.8857421875, 18525.7734375, -15201.0634765625, 136530.625, -187500.015625, -143520.453125, -187500.015625, -187500.015625, -0.1120000034570694, -0.6460000276565552, 0.7680000066757202, 192.0, 0.0, 0.0, 0.0, 0.0, 0.0, 0.0, 0.0, 0.0, 0.0, 1.6137590070402455E9, 2021-02-19 16:23:27.040
183.0, -15411.169921875, 18224.515625, -15497.6259765625, 136232.734375, -187500.015625, -141373.453125, -187500.015625, -187500.015625, -0.1120000034570694, -0.6460000276565552, 0.7680000066757202, 192.0, 0.0, 0.0, 0.0, 0.0, 0.0, 0.0, 0.0, 0.0, 0.0, 1.6137590070432782E9, 2021-02-19 16:23:27.043
184.0, -15653.4853515625, 18247.025390625, -15478.2919921875, 136242.28125, -187500.015625, -140467.34375, -187500.015625, -187500.015625, -0.10600000619888306, -0.6380000114440918, 0.7780000567436218, 192.0, 252.0, 176.0, 236.0, 16.0, 24.0, 80.0, 0.0, 0.0, 0.0, 1.6137590070472386E9, 2021-02-19 16:23:27.047
185.0, -15692.17578125, 18518.240234375, -15211.568359375, 136505.96875, -187500.015625, -142533.0, -187500.015625, -187500.015625, -0.10600000619888306, -0.6380000114440918, 0.7780000567436218, 192.0, 0.0, 0.0, 0.0, 0.0, 0.0, 0.0, 0.0, 0.0, 0.0, 1.613759007051338E9, 2021-02-19 16:23:27.051
186.0, -15432.1357421875, 18552.841796875, -15172.2744140625, 136548.390625, -187500.015625, -143684.046875, -187500.015625, -187500.015625, -0.10600000619888306, -0.6380000114440918, 0.7780000567436218, 192.0, 0.0, 0.0, 0.0, 0.0, 0.0, 0.0, 0.0, 0.0, 0.0, 1.613759007056289E9, 2021-02-19 16:23:27.056
187.0, -15363.7841796875, 18315.15234375, -15404.083984375, 136314.859375, -187500.015625, -141812.1875, -187500.015625, -187500.015625, -0.10600000619888306, -0.6380000114440918, 0.7780000567436218, 192.0, 0.0, 0.0, 0.0, 0.0, 0.0, 0.0, 0.0, 0.0, 0.0, 1.613759007059288E9, 2021-02-19 16:23:27.059
188.0, -15594.4990234375, 18209.09375, -15509.517578125, 136199.859375, -187500.015625, -140381.0625, -187500.015625, -187500.015625, -0.10600000619888306, -0.6380000114440918, 0.7780000567436218, 192.0, 0.0, 0.0, 0.0, 0.0, 0.0, 0.0, 0.0, 0.0, 0.0, 1.6137590070623014E9, 2021-02-19 16:23:27.062
189.0, -15744.724609375, 18459.09765625, -15264.8330078125, 136440.453125, -187500.015625, -142131.1875, -187500.015625, -187500.015625, -0.10600000619888306, -0.6380000114440918, 0.7780000567436218, 192.0, 0.0, 0.0, 0.0, 0.0, 0.0, 0.0, 0.0, 0.0, 0.0, 1.6137590070844467E9, 2021-02-19 16:23:27.084
190.0, -15482.203125, 18592.716796875, -15128.2861328125, 136580.984375, -187500.015625, -143765.640625, -187500.015625, -187500.015625, -0.10600000619888306, -0.6380000114440918, 0.7780000567436218, 192.0, 0.0, 0.0, 0.0, 0.0, 0.0, 0.0, 0.0, 0.0, 0.0, 1.6137590070872924E9, 2021-02-19 16:23:27.087
191.0, -15345.052734375, 18373.759765625, -15340.4267578125, 136368.609375, -187500.015625, -142299.5, -187500.015625, -187500.015625, -0.10600000619888306, -0.6380000114440918, 0.7780000567436218, 192.0, 0.0, 0.0, 0.0, 0.0, 0.0, 0.0, 0.0, 0.0, 0.0, 1.613759007090284E9, 2021-02-19 16:23:27.090
192.0, -15556.5234375, 18181.087890625, -15533.5009765625, 136171.421875, -187500.015625, -140460.765625, -187500.015625, -187500.015625, -0.10600000619888306, -0.6380000114440918, 0.7780000567436218, 192.0, 0.0, 0.0, 0.0, 0.0, 0.0, 0.0, 0.0, 0.0, 0.0, 1.613759007094332E9, 2021-02-19 16:23:27.094
193.0, -15753.9111328125, 18411.064453125, -15308.2177734375, 136393.21875, -187500.015625, -141772.890625, -187500.015625, -187500.015625, -0.10600000619888306, -0.6380000114440918, 0.7780000567436218, 192.0, 0.0, 0.0, 0.0, 0.0, 0.0, 0.0, 0.0, 0.0, 0.0, 1.6137590070973096E9, 2021-02-19 16:23:27.097
194.0, -15552.701171875, 18570.185546875, -15145.5634765625, 136559.390625, -187500.015625, -143764.9375, -187500.015625, -187500.015625, -0.11000000685453415, -0.6380000114440918, 0.7760000228881836, 192.0, 252.0, 144.0, 236.0, 16.0, 24.0, 64.0, 0.0, 0.0, 0.0, 1.613759007101353E9, 2021-02-19 16:23:27.101
195.0, -15410.119140625, 18342.130859375, -15369.1259765625, 136340.0, -187500.015625, -142749.5625, -187500.015625, -187500.015625, -0.11000000685453415, -0.6380000114440918, 0.7760000228881836, 192.0, 0.0, 0.0, 0.0, 0.0, 0.0, 0.0, 0.0, 0.0, 0.0, 1.6137590071043365E9, 2021-02-19 16:23:27.104
196.0, -15555.517578125, 18170.134765625, -15542.9775390625, 136162.15625, -187500.015625, -140646.5625, -187500.015625, -187500.015625, -0.11000000685453415, -0.6380000114440918, 0.7760000228881836, 192.0, 0.0, 0.0, 0.0, 0.0, 0.0, 0.0, 0.0, 0.0, 0.0, 1.6137590071074107E9, 2021-02-19 16:23:27.107
197.0, -15746.04296875, 18396.69140625, -15322.8134765625, 136376.421875, -187500.015625, -141430.609375, -187500.015625, -187500.015625, -0.11000000685453415, -0.6380000114440918, 0.7760000228881836, 192.0, 0.0, 0.0, 0.0, 0.0, 0.0, 0.0, 0.0, 0.0, 0.0, 1.6137590071113224E9, 2021-02-19 16:23:27.111
198.0, -15582.6298828125, 18587.6875, -15131.9296875, 136573.9375, -187500.015625, -143656.015625, -187500.015625, -187500.015625, -0.11000000685453415, -0.6380000114440918, 0.7760000228881836, 192.0, 0.0, 0.0, 0.0, 0.0, 0.0, 0.0, 0.0, 0.0, 0.0, 1.6137590071143389E9, 2021-02-19 16:23:27.114
199.0, -15405.08984375, 18398.703125, -15314.9677734375, 136395.09375, -187500.015625, -143199.15625, -187500.015625, -187500.015625, -0.11000000685453415, -0.6380000114440918, 0.7760000228881836, 192.0, 0.0, 0.0, 0.0, 0.0, 0.0, 0.0, 0.0, 0.0, 0.0, 1.6137590071174555E9, 2021-02-19 16:23:27.117
200.0, -15507.8408203125, 18178.47265625, -15534.126953125, 136174.40625, -187500.015625, -140961.609375, -187500.015625, -187500.015625, -0.11000000685453415, -0.6380000114440918, 0.7760000228881836, 192.0, 0.0, 0.0, 0.0, 0.0, 0.0, 0.0, 0.0, 0.0, 0.0, 1.613759007121338E9, 2021-02-19 16:23:27.121
201.0, -15722.08203125, 18346.154296875, -15375.8095703125, 136330.21875, -187500.015625, -141155.9375, -187500.015625, -187500.015625, -0.11000000685453415, -0.6380000114440918, 0.7760000228881836, 192.0, 0.0, 0.0, 0.0, 0.0, 0.0, 0.0, 0.0, 0.0, 0.0, 1.6137590071243432E9, 2021-02-19 16:23:27.124
202.0, -15623.2431640625, 18579.529296875, -15145.3623046875, 136564.796875, -187500.015625, -143461.890625, -187500.015625, -187500.015625, -0.11000000685453415, -0.6380000114440918, 0.7760000228881836, 192.0, 0.0, 0.0, 0.0, 0.0, 0.0, 0.0, 0.0, 0.0, 0.0, 1.6137590071283646E9, 2021-02-19 16:23:27.128
203.0, -15396.8193359375, 18465.646484375, -15257.3447265625, 136457.96875, -187500.015625, -143607.421875, -187500.015625, -187500.015625, -0.11000000685453415, -0.6380000114440918, 0.7760000228881836, 192.0, 0.0, 0.0, 0.0, 0.0, 0.0, 0.0, 0.0, 0.0, 0.0, 1.613759007131464E9, 2021-02-19 16:23:27.131
204.0, -15429.587890625, 18230.640625, -15489.7138671875, 136223.015625, -187500.015625, -141396.65625, -187500.015625, -187500.015625, -0.1080000028014183, -0.64000004529953, 0.7700000405311584, 192.0, 252.0, 160.0, 236.0, 0.0, 24.0, 16.0, 0.0, 0.0, 0.0, 1.6137590071344855E9, 2021-02-19 16:23:27.134
205.0, -15675.478515625, 18298.791015625, -15425.7431640625, 136277.328125, -187500.015625, -140963.859375, -187500.015625, -187500.015625, -0.1080000028014183, -0.64000004529953, 0.7700000405311584, 192.0, 0.0, 0.0, 0.0, 0.0, 0.0, 0.0, 0.0, 0.0, 0.0, 1.6137590071383653E9, 2021-02-19 16:23:27.138
206.0, -15625.34375, 18602.865234375, -15124.955078125, 136580.4375, -187500.015625, -143218.3125, -187500.015625, -187500.015625, -0.1080000028014183, -0.64000004529953, 0.7700000405311584, 192.0, 0.0, 0.0, 0.0, 0.0, 0.0, 0.0, 0.0, 0.0, 0.0, 1.6137590071414487E9, 2021-02-19 16:23:27.141
207.0, -15370.9140625, 18554.763671875, -15167.916015625, 136543.6875, -187500.015625, -143954.296875, -187500.015625, -187500.015625, -0.1080000028014183, -0.64000004529953, 0.7700000405311584, 192.0, 0.0, 0.0, 0.0, 0.0, 0.0, 0.0, 0.0, 0.0, 0.0, 1.6137590071443744E9, 2021-02-19 16:23:27.144
208.0, -15379.9892578125, 18260.099609375, -15460.7236328125, 136254.328125, -187500.015625, -141904.203125, -187500.015625, -187500.015625, -0.1080000028014183, -0.64000004529953, 0.7700000405311584, 192.0, 0.0, 0.0, 0.0, 0.0, 0.0, 0.0, 0.0, 0.0, 0.0, 1.6137590071483965E9, 2021-02-19 16:23:27.148
209.0, -15627.087890625, 18253.484375, -15472.7041015625, 136236.765625, -187500.015625, -140887.421875, -187500.015625, -187500.015625, -0.1080000028014183, -0.64000004529953, 0.7700000405311584, 192.0, 0.0, 0.0, 0.0, 0.0, 0.0, 0.0, 0.0, 0.0, 0.0, 1.6137590071515532E9, 2021-02-19 16:23:27.151
210.0, -15669.1083984375, 18541.083984375, -15191.4970703125, 136516.5625, -187500.015625, -142909.875, -187500.015625, -187500.015625, -0.1080000028014183, -0.64000004529953, 0.7700000405311584, 192.0, 0.0, 0.0, 0.0, 0.0, 0.0, 0.0, 0.0, 0.0, 0.0, 1.6137590071544905E9, 2021-02-19 16:23:27.154
211.0, -15399.6806640625, 18598.08203125, -15133.494140625, 136581.171875, -187500.015625, -144182.25, -187500.015625, -187500.015625, -0.1080000028014183, -0.64000004529953, 0.7700000405311584, 192.0, 0.0, 0.0, 0.0, 0.0, 0.0, 0.0, 0.0, 0.0, 0.0, 1.6137590071584089E9, 2021-02-19 16:23:27.158
212.0, -15328.4013671875, 18319.466796875, -15406.990234375, 136308.375, -187500.015625, -142377.03125, -187500.015625, -187500.015625, -0.1080000028014183, -0.64000004529953, 0.7700000405311584, 192.0, 0.0, 0.0, 0.0, 0.0, 0.0, 0.0, 0.0, 0.0, 0.0, 1.613759007161401E9, 2021-02-19 16:23:27.161
213.0, -15577.6455078125, 18203.505859375, -15523.8671875, 136184.234375, -187500.015625, -140796.109375, -187500.015625, -187500.015625, -0.11000000685453415, -0.6360000371932983, 0.7680000066757202, 192.0, 252.0, 144.0, 236.0, 32.0, 24.0, 0.0, 0.0, 0.0, 0.0, 1.6137590071654203E9, 2021-02-19 16:23:27.165
214.0, -15713.7900390625, 18469.4921875, -15265.615234375, 136439.359375, -187500.015625, -142457.609375, -187500.015625, -187500.015625, -0.11000000685453415, -0.6360000371932983, 0.7680000066757202, 192.0, 0.0, 0.0, 0.0, 0.0, 0.0, 0.0, 0.0, 0.0, 0.0, 1.6137590071683817E9, 2021-02-19 16:23:27.168
215.0, -15463.78515625, 18590.236328125, -15143.8203125, 136567.953125, -187500.015625, -144216.46875, -187500.015625, -187500.015625, -0.11000000685453415, -0.6360000371932983, 0.7680000066757202, 192.0, 0.0, 0.0, 0.0, 0.0, 0.0, 0.0, 0.0, 0.0, 0.0, 1.6137590071724284E9, 2021-02-19 16:23:27.172
216.0, -15350.9765625, 18340.8125, -15387.1865234375, 136326.65625, -187500.015625, -142864.546875, -187500.015625, -187500.015625, -0.11000000685453415, -0.6360000371932983, 0.7680000066757202, 192.0, 0.0, 0.0, 0.0, 0.0, 0.0, 0.0, 0.0, 0.0, 0.0, 1.6137590071774223E9, 2021-02-19 16:23:27.177
217.0, -15521.6318359375, 18201.2265625, -15525.3203125, 136181.59375, -187500.015625, -141076.03125, -187500.015625, -187500.015625, -0.11000000685453415, -0.6360000371932983, 0.7680000066757202, 192.0, 0.0, 0.0, 0.0, 0.0, 0.0, 0.0, 0.0, 0.0, 0.0, 1.6137590071814256E9, 2021-02-19 16:23:27.181
218.0, -15697.5400390625, 18451.677734375, -15283.2724609375, 136419.15625, -187500.015625, -142242.296875, -187500.015625, -187500.015625, -0.11000000685453415, -0.6360000371932983, 0.7680000066757202, 192.0, 0.0, 0.0, 0.0, 0.0, 0.0, 0.0, 0.0, 0.0, 0.0, 1.6137590071845305E9, 2021-02-19 16:23:27.184
219.0, -15464.7470703125, 18651.568359375, -15083.8505859375, 136625.125, -187500.015625, -144322.921875, -187500.015625, -187500.015625, -0.11000000685453415, -0.6360000371932983, 0.7680000066757202, 192.0, 0.0, 0.0, 0.0, 0.0, 0.0, 0.0, 0.0, 0.0, 0.0, 1.6137590071894453E9, 2021-02-19 16:23:27.189
220.0, -15309.40234375, 18414.349609375, -15316.6220703125, 136397.890625, -187500.015625, -143466.59375, -187500.015625, -187500.015625, -0.11000000685453415, -0.6360000371932983, 0.7680000066757202, 192.0, 0.0, 0.0, 0.0, 0.0, 0.0, 0.0, 0.0, 0.0, 0.0, 1.6137590071925325E9, 2021-02-19 16:23:27.192
221.0, -15456.431640625, 18211.9765625, -15520.3134765625, 136191.921875, -187500.015625, -141309.0625, -187500.015625, -187500.015625, -0.11000000685453415, -0.6360000371932983, 0.7680000066757202, 192.0, 0.0, 0.0, 0.0, 0.0, 0.0, 0.0, 0.0, 0.0, 0.0, 1.613759007195442E9, 2021-02-19 16:23:27.195
222.0, -15678.4072265625, 18388.689453125, -15350.1943359375, 136355.15625, -187500.015625, -141945.390625, -187500.015625, -187500.015625, -0.11000000685453415, -0.6360000371932983, 0.7680000066757202, 192.0, 0.0, 0.0, 0.0, 0.0, 0.0, 0.0, 0.0, 0.0, 0.0, 1.6137590071985097E9, 2021-02-19 16:23:27.198
223.0, -15540.8544921875, 18614.576171875, -15126.564453125, 136580.90625, -187500.015625, -144229.5, -187500.015625, -187500.015625, -0.10400000214576721, -0.628000020980835, 0.7680000066757202, 192.0, 252.0, 192.0, 236.0, 96.0, 24.0, 0.0, 0.0, 0.0, 0.0, 1.6137590072025168E9, 2021-02-19 16:23:27.202
224.0, -15329.630859375, 18459.880859375, -15277.1708984375, 136436.453125, -187500.015625, -143926.390625, -187500.015625, -187500.015625, -0.10400000214576721, -0.628000020980835, 0.7680000066757202, 192.0, 0.0, 0.0, 0.0, 0.0, 0.0, 0.0, 0.0, 0.0, 0.0, 1.6137590072146344E9, 2021-02-19 16:23:27.214
225.0, -15410.9013671875, 18230.998046875, -15503.1689453125, 136208.53125, -187500.015625, -141684.734375, -187500.015625, -187500.015625, -0.10400000214576721, -0.628000020980835, 0.7680000066757202, 192.0, 0.0, 0.0, 0.0, 0.0, 0.0, 0.0, 0.0, 0.0, 0.0, 1.6137590072194703E9, 2021-02-19 16:23:27.219
226.0, -15660.66015625, 18331.201171875, -15408.6435546875, 136297.671875, -187500.015625, -141714.84375, -187500.015625, -187500.015625, -0.10400000214576721, -0.628000020980835, 0.7680000066757202, 192.0, 0.0, 0.0, 0.0, 0.0, 0.0, 0.0, 0.0, 0.0, 0.0, 1.6137590072234719E9, 2021-02-19 16:23:27.223
227.0, -15601.2265625, 18577.47265625, -15164.607421875, 136542.515625, -187500.015625, -144040.203125, -187500.015625, -187500.015625, -0.10400000214576721, -0.628000020980835, 0.7680000066757202, 192.0, 0.0, 0.0, 0.0, 0.0, 0.0, 0.0, 0.0, 0.0, 0.0, 1.6137590072264776E9, 2021-02-19 16:23:27.226
228.0, -15362.8232421875, 18492.55859375, -15244.470703125, 136466.6875, -187500.015625, -144313.78125, -187500.015625, -187500.015625, -0.10400000214576721, -0.628000020980835, 0.7680000066757202, 192.0, 0.0, 0.0, 0.0, 0.0, 0.0, 0.0, 0.0, 0.0, 0.0, 1.6137590072294753E9, 2021-02-19 16:23:27.229
229.0, -15385.2197265625, 18254.267578125, -15478.1796875, 136230.015625, -187500.015625, -142102.03125, -187500.015625, -187500.015625, -0.10400000214576721, -0.628000020980835, 0.7680000066757202, 192.0, 0.0, 0.0, 0.0, 0.0, 0.0, 0.0, 0.0, 0.0, 0.0, 1.613759007232566E9, 2021-02-19 16:23:27.232
230.0, -15603.55078125, 18339.248046875, -15396.9765625, 136302.703125, -187500.015625, -141540.046875, -187500.015625, -187500.015625, -0.10400000214576721, -0.628000020980835, 0.7680000066757202, 192.0, 0.0, 0.0, 0.0, 0.0, 0.0, 0.0, 0.0, 0.0, 0.0, 1.6137590072475474E9, 2021-02-19 16:23:27.247
231.0, -15582.3173828125, 18621.08203125, -15120.6416015625, 136580.6875, -187500.015625, -143756.265625, -187500.015625, -187500.015625, -0.10400000214576721, -0.628000020980835, 0.7680000066757202, 192.0, 0.0, 0.0, 0.0, 0.0, 0.0, 0.0, 0.0, 0.0, 0.0, 1.6137590072726011E9, 2021-02-19 16:23:27.272
232.0, -15330.099609375, 18586.615234375, -15150.7939453125, 136556.859375, -187500.015625, -144610.34375, -187500.015625, -187500.015625, -0.10400000214576721, -0.628000020980835, 0.7680000066757202, 192.0, 0.0, 0.0, 0.0, 0.0, 0.0, 0.0, 0.0, 0.0, 0.0, 1.6137590072768307E9, 2021-02-19 16:23:27.276
233.0, -15339.1748046875, 18281.87109375, -15450.6875, 136257.1875, -187500.015625, -142581.6875, -187500.015625, -187500.015625, -0.10600000619888306, -0.628000020980835, 0.7700000405311584, 192.0, 252.0, 176.0, 236.0, 96.0, 24.0, 16.0, 0.0, 0.0, 0.0, 1.6137590072797616E9, 2021-02-19 16:23:27.279
234.0, -15589.08984375, 18250.66796875, -15484.974609375, 136215.609375, -187500.015625, -141442.765625, -187500.015625, -187500.015625, -0.10600000619888306, -0.628000020980835, 0.7700000405311584, 192.0, 0.0, 0.0, 0.0, 0.0, 0.0, 0.0, 0.0, 0.0, 0.0, 1.6137590072825675E9, 2021-02-19 16:23:27.282
235.0, -15667.25390625, 18512.294921875, -15230.3212890625, 136469.0, -187500.015625, -143391.390625, -187500.015625, -187500.015625, -0.10600000619888306, -0.628000020980835, 0.7700000405311584, 192.0, 0.0, 0.0, 0.0, 0.0, 0.0, 0.0, 0.0, 0.0, 0.0, 1.6137590072855616E9, 2021-02-19 16:23:27.285
236.0, -15427.5986328125, 18562.630859375, -15178.197265625, 136526.3125, -187500.015625, -144754.109375, -187500.015625, -187500.015625, -0.10600000619888306, -0.628000020980835, 0.7700000405311584, 192.0, 0.0, 0.0, 0.0, 0.0, 0.0, 0.0, 0.0, 0.0, 0.0, 1.6137590072916436E9, 2021-02-19 16:23:27.291
237.0, -15343.779296875, 18322.193359375, -15413.806640625, 136291.859375, -187500.015625, -143058.734375, -187500.015625, -187500.015625, -0.10600000619888306, -0.628000020980835, 0.7700000405311584, 192.0, 0.0, 0.0, 0.0, 0.0, 0.0, 0.0, 0.0, 0.0, 0.0, 1.6137590072946272E9, 2021-02-19 16:23:27.294
238.0, -15534.3720703125, 18241.1015625, -15497.0, 136202.765625, -187500.015625, -141445.609375, -187500.015625, -187500.015625, -0.10600000619888306, -0.628000020980835, 0.7700000405311584, 192.0, 0.0, 0.0, 0.0, 0.0, 0.0, 0.0, 0.0, 0.0, 0.0, 1.6137590072975922E9, 2021-02-19 16:23:27.297
239.0, -15688.8232421875, 18470.408203125, -15273.974609375, 136422.90625, -187500.015625, -142995.078125, -187500.015625, -187500.015625, -0.10600000619888306, -0.628000020980835, 0.7700000405311584, 192.0, 0.0, 0.0, 0.0, 0.0, 0.0, 0.0, 0.0, 0.0, 0.0, 1.6137590073016393E9, 2021-02-19 16:23:27.301
240.0, -15465.529296875, 18601.859375, -15139.7080078125, 136561.984375, -187500.015625, -144801.390625, -187500.015625, -187500.015625, -0.10600000619888306, -0.628000020980835, 0.7700000405311584, 192.0, 0.0, 0.0, 0.0, 0.0, 0.0, 0.0, 0.0, 0.0, 0.0, 1.613759007304602E9, 2021-02-19 16:23:27.304
241.0, -15318.923828125, 18400.759765625, -15335.3525390625, 136368.546875, -187500.015625, -143541.3125, -187500.015625, -187500.015625, -0.10600000619888306, -0.628000020980835, 0.7700000405311584, 192.0, 0.0, 0.0, 0.0, 0.0, 0.0, 0.0, 0.0, 0.0, 0.0, 1.613759007307586E9, 2021-02-19 16:23:27.307
242.0, -15467.1611328125, 18249.818359375, -15484.86328125, 136212.375, -187500.015625, -141582.296875, -187500.015625, -187500.015625, -0.10600000619888306, -0.628000020980835, 0.7700000405311584, 192.0, 0.0, 0.0, 0.0, 0.0, 0.0, 0.0, 0.0, 0.0, 0.0, 1.6137590073117793E9, 2021-02-19 16:23:27.311
243.0, -15675.412109375, 18441.955078125, -15296.86328125, 136394.65625, -187500.015625, -142614.390625, -187500.015625, -187500.015625, -0.10600000619888306, -0.6340000033378601, 0.7740000486373901, 192.0, 252.0, 176.0, 236.0, 48.0, 24.0, 48.0, 0.0, 0.0, 0.0, 1.6137590073147295E9, 2021-02-19 16:23:27.314
244.0, -15486.025390625, 18650.49609375, -15087.0244140625, 136606.65625, -187500.015625, -144743.921875, -187500.015625, -187500.015625, -0.10600000619888306, -0.6340000033378601, 0.7740000486373901, 192.0, 0.0, 0.0, 0.0, 0.0, 0.0, 0.0, 0.0, 0.0, 0.0, 1.613759007332611E9, 2021-02-19 16:23:27.332
245.0, -15281.373046875, 18476.734375, -15254.685546875, 136441.453125, -187500.015625, -144017.109375, -187500.015625, -187500.015625, -0.10600000619888306, -0.6340000033378601, 0.7740000486373901, 192.0, 0.0, 0.0, 0.0, 0.0, 0.0, 0.0, 0.0, 0.0, 0.0, 1.6137590073367136E9, 2021-02-19 16:23:27.336
246.0, -15423.9775390625, 18228.16015625, -15500.3974609375, 136188.921875, -187500.015625, -141816.3125, -187500.015625, -187500.015625, -0.10600000619888306, -0.6340000033378601, 0.7740000486373901, 192.0, 0.0, 0.0, 0.0, 0.0, 0.0, 0.0, 0.0, 0.0, 0.0, 1.6137590073486896E9, 2021-02-19 16:23:27.348
247.0, -15675.0986328125, 18380.912109375, -15353.501953125, 136328.578125, -187500.015625, -142287.359375, -187500.015625, -187500.015625, -0.10600000619888306, -0.6340000033378601, 0.7740000486373901, 192.0, 0.0, 0.0, 0.0, 0.0, 0.0, 0.0, 0.0, 0.0, 0.0, 1.613759007351753E9, 2021-02-19 16:23:27.351
248.0, -15557.796875, 18608.138671875, -15126.810546875, 136558.640625, -187500.015625, -144558.8125, -187500.015625, -187500.015625, -0.10600000619888306, -0.6340000033378601, 0.7740000486373901, 192.0, 0.0, 0.0, 0.0, 0.0, 0.0, 0.0, 0.0, 0.0, 0.0, 1.6137590073606873E9, 2021-02-19 16:23:27.360
249.0, -15332.111328125, 18479.080078125, -15249.1865234375, 136441.125, -187500.015625, -144391.84375, -187500.015625, -187500.015625, -0.10600000619888306, -0.6340000033378601, 0.7740000486373901, 192.0, 0.0, 0.0, 0.0, 0.0, 0.0, 0.0, 0.0, 0.0, 0.0, 1.6137590073647184E9, 2021-02-19 16:23:27.364
250.0, -15403.1005859375, 18246.421875, -15478.26953125, 136207.75, -187500.015625, -142129.65625, -187500.015625, -187500.015625, -0.10600000619888306, -0.6340000033378601, 0.7740000486373901, 192.0, 0.0, 0.0, 0.0, 0.0, 0.0, 0.0, 0.0, 0.0, 0.0, 1.6137590073676877E9, 2021-02-19 16:23:27.367
251.0, -15634.5302734375, 18359.654296875, -15369.908203125, 136308.78125, -187500.015625, -141997.15625, -187500.015625, -187500.015625, -0.10600000619888306, -0.6340000033378601, 0.7740000486373901, 192.0, 0.0, 0.0, 0.0, 0.0, 0.0, 0.0, 0.0, 0.0, 0.0, 1.6137590073706827E9, 2021-02-19 16:23:27.370
252.0, -15587.63671875, 18613.482421875, -15119.8818359375, 136563.140625, -187500.015625, -144289.71875, -187500.015625, -187500.015625, -0.10600000619888306, -0.6340000033378601, 0.7740000486373901, 192.0, 0.0, 0.0, 0.0, 0.0, 0.0, 0.0, 0.0, 0.0, 0.0, 1.613759007374694E9, 2021-02-19 16:23:27.374
253.0, -15318.1865234375, 18567.548828125, -15161.0986328125, 136526.78125, -187500.015625, -144713.890625, -187500.015625, -187500.015625, -0.10400000214576721, -0.6360000371932983, 0.7600000500679016, 192.0, 252.0, 192.0, 236.0, 32.0, 23.0, 192.0, 0.0, 0.0, 0.0, 1.6137590073776765E9, 2021-02-19 16:23:27.377
254.0, -15342.818359375, 18289.4921875, -15435.0859375, 136249.25, -187500.015625, -142518.65625, -187500.015625, -187500.015625, -0.10400000214576721, -0.6360000371932983, 0.7600000500679016, 192.0, 0.0, 0.0, 0.0, 0.0, 0.0, 0.0, 0.0, 0.0, 0.0, 1.6137590073806846E9, 2021-02-19 16:23:27.380
255.0, -15594.677734375, 18306.79296875, -15421.0263671875, 136255.640625, -187500.015625, -141773.4375, -187500.015625, -187500.015625, -0.10400000214576721, -0.6360000371932983, 0.7600000500679016, 192.0, 0.0, 0.0, 0.0, 0.0, 0.0, 0.0, 0.0, 0.0, 0.0, 1.6137590073847005E9, 2021-02-19 16:23:27.384
0.0, -15634.4189453125, 18568.93359375, -15165.859375, 136511.515625, -187500.015625, -143912.109375, -187500.015625, -187500.015625, -0.10400000214576721, -0.6360000371932983, 0.7600000500679016, 192.0, 0.0, 0.0, 0.0, 0.0, 0.0, 0.0, 0.0, 0.0, 0.0, 1.6137590073878665E9, 2021-02-19 16:23:27.387
1.0, -15353.994140625, 18602.328125, -15130.5439453125, 136553.6875, -187500.015625, -144905.84375, -187500.015625, -187500.015625, -0.10400000214576721, -0.6360000371932983, 0.7600000500679016, 192.0, 0.0, 0.0, 0.0, 0.0, 0.0, 0.0, 0.0, 0.0, 0.0, 1.6137590073906817E9, 2021-02-19 16:23:27.390
2.0, -15319.2373046875, 18333.279296875, -15395.568359375, 136289.625, -187500.015625, -142923.28125, -187500.015625, -187500.015625, -0.10400000214576721, -0.6360000371932983, 0.7600000500679016, 192.0, 0.0, 0.0, 0.0, 0.0, 0.0, 0.0, 0.0, 0.0, 0.0, 1.6137590073946896E9, 2021-02-19 16:23:27.394
3.0, -15537.501953125, 18300.580078125, -15430.8388671875, 136246.96875, -187500.015625, -141637.296875, -187500.015625, -187500.015625, -0.10400000214576721, -0.6360000371932983, 0.7600000500679016, 192.0, 0.0, 0.0, 0.0, 0.0, 0.0, 0.0, 0.0, 0.0, 0.0, 1.6137590073976889E9, 2021-02-19 16:23:27.397
4.0, -15642.509765625, 18533.865234375, -15204.416015625, 136472.921875, -187500.015625, -143450.671875, -187500.015625, -187500.015625, -0.10400000214576721, -0.6360000371932983, 0.7600000500679016, 192.0, 0.0, 0.0, 0.0, 0.0, 0.0, 0.0, 0.0, 0.0, 0.0, 1.6137590074017403E9, 2021-02-19 16:23:27.401
5.0, -15416.421875, 18596.404296875, -15137.9638671875, 136543.921875, -187500.015625, -144859.328125, -187500.015625, -187500.015625, -0.10400000214576721, -0.6360000371932983, 0.7600000500679016, 192.0, 0.0, 0.0, 0.0, 0.0, 0.0, 0.0, 0.0, 0.0, 0.0, 1.613759007404771E9, 2021-02-19 16:23:27.404
6.0, -15317.806640625, 18373.087890625, -15354.6640625, 136328.53125, -187500.015625, -143214.84375, -187500.015625, -187500.015625, -0.10400000214576721, -0.6360000371932983, 0.7600000500679016, 192.0, 0.0, 0.0, 0.0, 0.0, 0.0, 0.0, 0.0, 0.0, 0.0, 1.613759007407752E9, 2021-02-19 16:23:27.407
7.0, -15502.8564453125, 18249.505859375, -15478.1796875, 136198.546875, -187500.015625, -141498.1875, -187500.015625, -187500.015625, -0.10400000214576721, -0.6340000033378601, 0.7760000228881836, 192.0, 252.0, 192.0, 236.0, 48.0, 24.0, 64.0, 0.0, 0.0, 0.0, 1.6137590074117239E9, 2021-02-19 16:23:27.411
8.0, -15683.6376953125, 18463.748046875, -15271.314453125, 136402.5625, -187500.015625, -142931.046875, -187500.015625, -187500.015625, -0.10400000214576721, -0.6340000033378601, 0.7760000228881836, 192.0, 0.0, 0.0, 0.0, 0.0, 0.0, 0.0, 0.0, 0.0, 0.0, 1.6137590074147468E9, 2021-02-19 16:23:27.414
9.0, -15472.123046875, 18603.19921875, -15129.828125, 136549.078125, -187500.015625, -144926.203125, -187500.015625, -187500.015625, -0.10400000214576721, -0.6340000033378601, 0.7760000228881836, 192.0, 0.0, 0.0, 0.0, 0.0, 0.0, 0.0, 0.0, 0.0, 0.0, 1.613759007418103E9, 2021-02-19 16:23:27.418
10.0, -15326.2333984375, 18380.732421875, -15346.6845703125, 136334.75, -187500.015625, -143711.296875, -187500.015625, -187500.015625, -0.10400000214576721, -0.6340000033378601, 0.7760000228881836, 192.0, 0.0, 0.0, 0.0, 0.0, 0.0, 0.0, 0.0, 0.0, 0.0, 1.613759007420719E9, 2021-02-19 16:23:27.420
11.0, -15506.9248046875, 18173.041015625, -15554.82421875, 136120.796875, -187500.015625, -141599.078125, -187500.015625, -187500.015625, -0.10400000214576721, -0.6340000033378601, 0.7760000228881836, 192.0, 0.0, 0.0, 0.0, 0.0, 0.0, 0.0, 0.0, 0.0, 0.0, 1.613759007424736E9, 2021-02-19 16:23:27.424
12.0, -15721.568359375, 18387.728515625, -15348.0927734375, 136322.296875, -187500.015625, -142497.421875, -187500.015625, -187500.015625, -0.10400000214576721, -0.6340000033378601, 0.7760000228881836, 192.0, 0.0, 0.0, 0.0, 0.0, 0.0, 0.0, 0.0, 0.0, 0.0, 1.6137590074277284E9, 2021-02-19 16:23:27.427
13.0, -15548.7890625, 18583.775390625, -15152.6044921875, 136523.0625, -187500.015625, -144637.390625, -187500.015625, -187500.015625, -0.10400000214576721, -0.6340000033378601, 0.7760000228881836, 192.0, 0.0, 0.0, 0.0, 0.0, 0.0, 0.0, 0.0, 0.0, 0.0, 1.613759007432764E9, 2021-02-19 16:23:27.432
14.0, -15334.8603515625, 18442.513671875, -15289.3974609375, 136392.0, -187500.015625, -143987.203125, -187500.015625, -187500.015625, -0.10400000214576721, -0.6340000033378601, 0.7760000228881836, 192.0, 0.0, 0.0, 0.0, 0.0, 0.0, 0.0, 0.0, 0.0, 0.0, 1.6137590074358325E9, 2021-02-19 16:23:27.435
15.0, -15421.9208984375, 18239.15625, -15491.412109375, 136187.28125, -187500.015625, -141738.484375, -187500.015625, -187500.015625, -0.10400000214576721, -0.6340000033378601, 0.7760000228881836, 192.0, 0.0, 0.0, 0.0, 0.0, 0.0, 0.0, 0.0, 0.0, 0.0, 1.613759007439751E9, 2021-02-19 16:23:27.439
16.0, -15671.1650390625, 18360.638671875, -15375.853515625, 136295.8125, -187500.015625, -142044.6875, -187500.015625, -187500.015625, -0.10400000214576721, -0.6340000033378601, 0.7760000228881836, 192.0, 0.0, 0.0, 0.0, 0.0, 0.0, 0.0, 0.0, 0.0, 0.0, 1.6137590074428248E9, 2021-02-19 16:23:27.442
17.0, -15570.2919921875, 18613.056640625, -15125.1787109375, 136549.125, -187500.015625, -144319.984375, -187500.015625, -187500.015625, -0.10200000554323196, -0.6320000290870667, 0.7780000567436218, 192.0, 252.0, 208.0, 236.0, 64.0, 24.0, 80.0, 0.0, 0.0, 0.0, 1.613759007445992E9, 2021-02-19 16:23:27.445
18.0, -15308.5751953125, 18529.998046875, -15203.119140625, 136477.28125, -187500.015625, -144248.03125, -187500.015625, -187500.015625, -0.10200000554323196, -0.6320000290870667, 0.7780000567436218, 192.0, 0.0, 0.0, 0.0, 0.0, 0.0, 0.0, 0.0, 0.0, 0.0, 1.6137590074497807E9, 2021-02-19 16:23:27.449
19.0, -15378.2451171875, 18252.12109375, -15476.2802734375, 136199.65625, -187500.015625, -141940.8125, -187500.015625, -187500.015625, -0.10200000554323196, -0.6320000290870667, 0.7780000567436218, 192.0, 0.0, 0.0, 0.0, 0.0, 0.0, 0.0, 0.0, 0.0, 0.0, 1.6137590074527676E9, 2021-02-19 16:23:27.452
20.0, -15617.6552734375, 18366.62890625, -15367.2041015625, 136301.15625, -187500.015625, -141672.90625, -187500.015625, -187500.015625, -0.10200000554323196, -0.6320000290870667, 0.7780000567436218, 192.0, 0.0, 0.0, 0.0, 0.0, 0.0, 0.0, 0.0, 0.0, 0.0, 1.6137590074567842E9, 2021-02-19 16:23:27.456
21.0, -15582.205078125, 18605.546875, -15133.337890625, 136538.28125, -187500.015625, -143911.046875, -187500.015625, -187500.015625, -0.10200000554323196, -0.6320000290870667, 0.7780000567436218, 192.0, 0.0, 0.0, 0.0, 0.0, 0.0, 0.0, 0.0, 0.0, 0.0, 1.613759007459769E9, 2021-02-19 16:23:27.459
22.0, -15351.2890625, 18538.134765625, -15196.861328125, 136479.4375, -187500.015625, -144423.265625, -187500.015625, -187500.015625, -0.10200000554323196, -0.6320000290870667, 0.7780000567436218, 192.0, 0.0, 0.0, 0.0, 0.0, 0.0, 0.0, 0.0, 0.0, 0.0, 1.613759007462753E9, 2021-02-19 16:23:27.462
23.0, -15360.5654296875, 18269.064453125, -15463.8974609375, 136213.5, -187500.015625, -142248.421875, -187500.015625, -187500.015625, -0.10200000554323196, -0.6320000290870667, 0.7780000567436218, 192.0, 0.0, 0.0, 0.0, 0.0, 0.0, 0.0, 0.0, 0.0, 0.0, 1.6137590074670606E9, 2021-02-19 16:23:27.467
24.0, -15617.6328125, 18272.193359375, -15464.634765625, 136205.203125, -187500.015625, -141358.859375, -187500.015625, -187500.015625, -0.10200000554323196, -0.6320000290870667, 0.7780000567436218, 192.0, 0.0, 0.0, 0.0, 0.0, 0.0, 0.0, 0.0, 0.0, 0.0, 1.6137590074699752E9, 2021-02-19 16:23:27.469
25.0, -15657.9775390625, 18528.09765625, -15212.73046875, 136457.265625, -187500.015625, -143411.296875, -187500.015625, -187500.015625, -0.10200000554323196, -0.6320000290870667, 0.7780000567436218, 192.0, 0.0, 0.0, 0.0, 0.0, 0.0, 0.0, 0.0, 0.0, 0.0, 1.6137590074727857E9, 2021-02-19 16:23:27.472
26.0, -15416.1767578125, 18549.95703125, -15189.9765625, 136489.046875, -187500.015625, -144481.875, -187500.015625, -187500.015625, -0.09800000488758087, -0.6300000548362732, 0.7780000567436218, 192.0, 252.0, 240.0, 236.0, 80.0, 24.0, 80.0, 0.0, 0.0, 0.0, 1.6137590074768617E9, 2021-02-19 16:23:27.476
27.0, -15346.2158203125, 18323.310546875, -15410.833984375, 136266.890625, -187500.015625, -142578.171875, -187500.015625, -187500.015625, -0.09800000488758087, -0.6300000548362732, 0.7780000567436218, 192.0, 0.0, 0.0, 0.0, 0.0, 0.0, 0.0, 0.0, 0.0, 0.0, 1.613759007479805E9, 2021-02-19 16:23:27.479
28.0, -15525.87890625, 18308.58203125, -15424.4462890625, 136241.703125, -187500.015625, -141185.890625, -187500.015625, -187500.015625, -0.09800000488758087, -0.6300000548362732, 0.7780000567436218, 192.0, 0.0, 0.0, 0.0, 0.0, 0.0, 0.0, 0.0, 0.0, 0.0, 1.6137590074828143E9, 2021-02-19 16:23:27.482
29.0, -15644.7900390625, 18523.203125, -15215.79296875, 136449.109375, -187500.015625, -142919.0, -187500.015625, -187500.015625, -0.09800000488758087, -0.6300000548362732, 0.7780000567436218, 192.0, 0.0, 0.0, 0.0, 0.0, 0.0, 0.0, 0.0, 0.0, 0.0, 1.6137590074868164E9, 2021-02-19 16:23:27.486
30.0, -15439.6904296875, 18589.521484375, -15148.73828125, 136523.09375, -187500.015625, -144474.671875, -187500.015625, -187500.015625, -0.09800000488758087, -0.6300000548362732, 0.7780000567436218, 192.0, 0.0, 0.0, 0.0, 0.0, 0.0, 0.0, 0.0, 0.0, 0.0, 1.6137590074978075E9, 2021-02-19 16:23:27.497
31.0, -15327.1044921875, 18365.958984375, -15367.248046875, 136305.3125, -187500.015625, -142941.34375, -187500.015625, -187500.015625, -0.09800000488758087, -0.6300000548362732, 0.7780000567436218, 192.0, 0.0, 0.0, 0.0, 0.0, 0.0, 0.0, 0.0, 0.0, 0.0, 1.613759007501818E9, 2021-02-19 16:23:27.501
32.0, -15502.587890625, 18251.62890625, -15482.1591796875, 136184.125, -187500.015625, -141116.328125, -187500.015625, -187500.015625, -0.09800000488758087, -0.6300000548362732, 0.7780000567436218, 192.0, 0.0, 0.0, 0.0, 0.0, 0.0, 0.0, 0.0, 0.0, 0.0, 1.613759007504827E9, 2021-02-19 16:23:27.504
33.0, -15668.8408203125, 18481.875, -15259.06640625, 136404.671875, -187500.015625, -142409.265625, -187500.015625, -187500.015625, -0.09800000488758087, -0.6300000548362732, 0.7780000567436218, 192.0, 0.0, 0.0, 0.0, 0.0, 0.0, 0.0, 0.0, 0.0, 0.0, 1.613759007508949E9, 2021-02-19 16:23:27.508
34.0, -15460.5224609375, 18640.392578125, -15100.3681640625, 136569.75, -187500.015625, -144357.4375, -187500.015625, -187500.015625, -0.09800000488758087, -0.6300000548362732, 0.7780000567436218, 192.0, 0.0, 0.0, 0.0, 0.0, 0.0, 0.0, 0.0, 0.0, 0.0, 1.6137590075118167E9, 2021-02-19 16:23:27.511
35.0, -15286.9384765625, 18453.48828125, -15280.45703125, 136392.421875, -187500.015625, -143315.734375, -187500.015625, -187500.015625, -0.09800000488758087, -0.6300000548362732, 0.7780000567436218, 192.0, 0.0, 0.0, 0.0, 0.0, 0.0, 0.0, 0.0, 0.0, 0.0, 1.6137590075158584E9, 2021-02-19 16:23:27.515
36.0, -15447.826171875, 18226.08203125, -15505.962890625, 136160.75, -187500.015625, -141177.015625, -187500.015625, -187500.015625, -0.09400000423192978, -0.628000020980835, 0.7720000147819519, 192.0, 253.0, 16.0, 236.0, 96.0, 24.0, 32.0, 0.0, 0.0, 0.0, 1.6137590075188315E9, 2021-02-19 16:23:27.518
37.0, -15695.998046875, 18402.033203125, -15338.4814453125, 136322.640625, -187500.015625, -141931.984375, -187500.015625, -187500.015625, -0.09400000423192978, -0.628000020980835, 0.7720000147819519, 192.0, 0.0, 0.0, 0.0, 0.0, 0.0, 0.0, 0.0, 0.0, 0.0, 1.6137590075218773E9, 2021-02-19 16:23:27.521
38.0, -15522.302734375, 18641.265625, -15101.93359375, 136565.953125, -187500.015625, -144125.15625, -187500.015625, -187500.015625, -0.09400000423192978, -0.628000020980835, 0.7720000147819519, 192.0, 0.0, 0.0, 0.0, 0.0, 0.0, 0.0, 0.0, 0.0, 0.0, 1.613759007524846E9, 2021-02-19 16:23:27.524
39.0, -15315.146484375, 18465.087890625, -15272.56640625, 136400.203125, -187500.015625, -143629.46875, -187500.015625, -187500.015625, -0.09400000423192978, -0.628000020980835, 0.7720000147819519, 192.0, 0.0, 0.0, 0.0, 0.0, 0.0, 0.0, 0.0, 0.0, 0.0, 1.61375900752886E9, 2021-02-19 16:23:27.528
40.0, -15425.8095703125, 18229.322265625, -15505.1142578125, 136163.96875, -187500.015625, -141348.203125, -187500.015625, -187500.015625, -0.09400000423192978, -0.628000020980835, 0.7720000147819519, 192.0, 0.0, 0.0, 0.0, 0.0, 0.0, 0.0, 0.0, 0.0, 0.0, 1.6137590075498805E9, 2021-02-19 16:23:27.549
41.0, -15673.400390625, 18356.794921875, -15385.8896484375, 136278.78125, -187500.015625, -141512.9375, -187500.015625, -187500.015625, -0.09400000423192978, -0.628000020980835, 0.7720000147819519, 192.0, 0.0, 0.0, 0.0, 0.0, 0.0, 0.0, 0.0, 0.0, 0.0, 1.61375900757492E9, 2021-02-19 16:23:27.574
42.0, -15577.0869140625, 18608.787109375, -15138.0986328125, 136530.328125, -187500.015625, -143802.296875, -187500.015625, -187500.015625, -0.09400000423192978, -0.628000020980835, 0.7720000147819519, 192.0, 0.0, 0.0, 0.0, 0.0, 0.0, 0.0, 0.0, 0.0, 0.0, 1.6137590075790377E9, 2021-02-19 16:23:27.579
43.0, -15355.6474609375, 18487.328125, -15255.7802734375, 136417.03125, -187500.015625, -143884.828125, -187500.015625, -187500.015625, -0.09400000423192978, -0.628000020980835, 0.7720000147819519, 192.0, 0.0, 0.0, 0.0, 0.0, 0.0, 0.0, 0.0, 0.0, 0.0, 1.6137590075821917E9, 2021-02-19 16:23:27.582
44.0, -15396.23828125, 18259.67578125, -15479.3427734375, 136189.515625, -187500.015625, -141623.078125, -187500.015625, -187500.015625, -0.09400000423192978, -0.628000020980835, 0.7720000147819519, 192.0, 0.0, 0.0, 0.0, 0.0, 0.0, 0.0, 0.0, 0.0, 0.0, 1.6137590075849671E9, 2021-02-19 16:23:27.584
45.0, -15629.1884765625, 18340.767578125, -15401.9833984375, 136259.203125, -187500.015625, -141193.4375, -187500.015625, -187500.015625, -0.09400000423192978, -0.628000020980835, 0.7720000147819519, 192.0, 0.0, 0.0, 0.0, 0.0, 0.0, 0.0, 0.0, 0.0, 0.0, 1.6137590075889595E9, 2021-02-19 16:23:27.588
46.0, -15597.5380859375, 18607.736328125, -15139.193359375, 136525.75, -187500.015625, -143434.21875, -187500.015625, -187500.015625, -0.09600000083446503, -0.6340000033378601, 0.7700000405311584, 192.0, 253.0, 0.0, 236.0, 48.0, 24.0, 16.0, 0.0, 0.0, 0.0, 1.6137590075930047E9, 2021-02-19 16:23:27.593
47.0, -15361.8388671875, 18542.671875, -15199.341796875, 136473.015625, -187500.015625, -144111.53125, -187500.015625, -187500.015625, -0.09600000083446503, -0.6340000033378601, 0.7700000405311584, 192.0, 0.0, 0.0, 0.0, 0.0, 0.0, 0.0, 0.0, 0.0, 0.0, 1.6137590075979495E9, 2021-02-19 16:23:27.597
48.0, -15368.4111328125, 18277.35546875, -15459.1591796875, 136212.671875, -187500.015625, -141989.40625, -187500.015625, -187500.015625, -0.09600000083446503, -0.6340000033378601, 0.7700000405311584, 192.0, 0.0, 0.0, 0.0, 0.0, 0.0, 0.0, 0.0, 0.0, 0.0, 1.6137590076050284E9, 2021-02-19 16:23:27.605
49.0, -15600.98046875, 18271.119140625, -15467.33984375, 136196.96875, -187500.015625, -140980.109375, -187500.015625, -187500.015625, -0.09600000083446503, -0.6340000033378601, 0.7700000405311584, 192.0, 0.0, 0.0, 0.0, 0.0, 0.0, 0.0, 0.0, 0.0, 0.0, 1.61375900760795E9, 2021-02-19 16:23:27.607
50.0, -15671.8798828125, 18517.7265625, -15226.4775390625, 136438.5, -187500.015625, -142983.859375, -187500.015625, -187500.015625, -0.09600000083446503, -0.6340000033378601, 0.7700000405311584, 192.0, 0.0, 0.0, 0.0, 0.0, 0.0, 0.0, 0.0, 0.0, 0.0, 1.6137590076119936E9, 2021-02-19 16:23:27.611
51.0, -15427.732421875, 18552.3046875, -15189.9541015625, 136481.453125, -187500.015625, -144203.734375, -187500.015625, -187500.015625, -0.09600000083446503, -0.6340000033378601, 0.7700000405311584, 192.0, 0.0, 0.0, 0.0, 0.0, 0.0, 0.0, 0.0, 0.0, 0.0, 1.6137590076149838E9, 2021-02-19 16:23:27.614
52.0, -15368.0302734375, 18290.052734375, -15446.7978515625, 136224.15625, -187500.015625, -142349.40625, -187500.015625, -187500.015625, -0.09600000083446503, -0.6340000033378601, 0.7700000405311584, 192.0, 0.0, 0.0, 0.0, 0.0, 0.0, 0.0, 0.0, 0.0, 0.0, 1.6137590076180172E9, 2021-02-19 16:23:27.618
53.0, -15580.3271484375, 18224.158203125, -15514.5908203125, 136147.171875, -187500.015625, -140765.890625, -187500.015625, -187500.015625, -0.09600000083446503, -0.6340000033378601, 0.7700000405311584, 192.0, 0.0, 0.0, 0.0, 0.0, 0.0, 0.0, 0.0, 0.0, 0.0, 1.613759007634123E9, 2021-02-19 16:23:27.634
54.0, -15674.4287109375, 18513.390625, -15233.205078125, 136426.28125, -187500.015625, -142432.78125, -187500.015625, -187500.015625, -0.09600000083446503, -0.6340000033378601, 0.7700000405311584, 192.0, 0.0, 0.0, 0.0, 0.0, 0.0, 0.0, 0.0, 0.0, 0.0, 1.613759007637988E9, 2021-02-19 16:23:27.637
55.0, -15453.8837890625, 18579.41796875, -15166.5302734375, 136499.03125, -187500.015625, -144132.359375, -187500.015625, -187500.015625, -0.09600000083446503, -0.6340000033378601, 0.7700000405311584, 192.0, 0.0, 0.0, 0.0, 0.0, 0.0, 0.0, 0.0, 0.0, 0.0, 1.6137590076410525E9, 2021-02-19 16:23:27.641
56.0, -15356.3408203125, 18351.765625, -15390.6728515625, 136278.640625, -187500.015625, -142712.4375, -187500.015625, -187500.015625, -0.09400000423192978, -0.6380000114440918, 0.7740000486373901, 192.0, 253.0, 16.0, 236.0, 16.0, 24.0, 48.0, 0.0, 0.0, 0.0, 1.6137590076450007E9, 2021-02-19 16:23:27.645
57.0, -15500.1962890625, 18247.60546875, -15495.681640625, 136170.3125, -187500.015625, -140937.109375, -187500.015625, -187500.015625, -0.09400000423192978, -0.6380000114440918, 0.7740000486373901, 192.0, 0.0, 0.0, 0.0, 0.0, 0.0, 0.0, 0.0, 0.0, 0.0, 1.6137590076480088E9, 2021-02-19 16:23:27.648
58.0, -15663.1630859375, 18483.953125, -15265.81640625, 136396.90625, -187500.015625, -142134.890625, -187500.015625, -187500.015625, -0.09400000423192978, -0.6380000114440918, 0.7740000486373901, 192.0, 0.0, 0.0, 0.0, 0.0, 0.0, 0.0, 0.0, 0.0, 0.0, 1.6137590076510005E9, 2021-02-19 16:23:27.651
59.0, -15466.490234375, 18639.0078125, -15109.3759765625, 136558.25, -187500.015625, -144144.8125, -187500.015625, -187500.015625, -0.09400000423192978, -0.6380000114440918, 0.7740000486373901, 192.0, 0.0, 0.0, 0.0, 0.0, 0.0, 0.0, 0.0, 0.0, 0.0, 1.6137590076551988E9, 2021-02-19 16:23:27.655
60.0, -15313.4033203125, 18415.9140625, -15326.4560546875, 136342.78125, -187500.015625, -143221.390625, -187500.015625, -187500.015625, -0.09400000423192978, -0.6380000114440918, 0.7740000486373901, 192.0, 0.0, 0.0, 0.0, 0.0, 0.0, 0.0, 0.0, 0.0, 0.0, 1.6137590076580312E9, 2021-02-19 16:23:27.658
61.0, -15470.916015625, 18194.6328125, -15546.3525390625, 136117.625, -187500.015625, -141052.59375, -187500.015625, -187500.015625, -0.09400000423192978, -0.6380000114440918, 0.7740000486373901, 192.0, 0.0, 0.0, 0.0, 0.0, 0.0, 0.0, 0.0, 0.0, 0.0, 1.613759007662046E9, 2021-02-19 16:23:27.662
62.0, -15706.927734375, 18374.09375, -15374.244140625, 136285.3125, -187500.015625, -141691.390625, -187500.015625, -187500.015625, -0.09400000423192978, -0.6380000114440918, 0.7740000486373901, 192.0, 0.0, 0.0, 0.0, 0.0, 0.0, 0.0, 0.0, 0.0, 0.0, 1.6137590076650355E9, 2021-02-19 16:23:27.665
63.0, -15558.4453125, 18609.771484375, -15138.7685546875, 136524.8125, -187500.015625, -143925.875, -187500.015625, -187500.015625, -0.09400000423192978, -0.6380000114440918, 0.7740000486373901, 192.0, 0.0, 0.0, 0.0, 0.0, 0.0, 0.0, 0.0, 0.0, 0.0, 1.6137590076681442E9, 2021-02-19 16:23:27.668
64.0, -15330.2783203125, 18475.59375, -15265.4365234375, 136400.9375, -187500.015625, -143582.734375, -187500.015625, -187500.015625, -0.09400000423192978, -0.6380000114440918, 0.7740000486373901, 192.0, 0.0, 0.0, 0.0, 0.0, 0.0, 0.0, 0.0, 0.0, 0.0, 1.613759007672061E9, 2021-02-19 16:23:27.672
65.0, -15396.6181640625, 18267.4765625, -15471.2060546875, 136191.921875, -187500.015625, -141332.046875, -187500.015625, -187500.015625, -0.09400000423192978, -0.6380000114440918, 0.7740000486373901, 192.0, 0.0, 0.0, 0.0, 0.0, 0.0, 0.0, 0.0, 0.0, 0.0, 1.6137590076750784E9, 2021-02-19 16:23:27.675
66.0, -15624.9638671875, 18393.271484375, -15351.3115234375, 136305.0, -187500.015625, -141385.421875, -187500.015625, -187500.015625, -0.09600000083446503, -0.6380000114440918, 0.7680000066757202, 192.0, 253.0, 0.0, 236.0, 16.0, 24.0, 0.0, 0.0, 0.0, 0.0, 1.6137590076790478E9, 2021-02-19 16:23:27.679
67.0, -15554.7568359375, 18632.234375, -15115.0087890625, 136544.484375, -187500.015625, -143676.609375, -187500.015625, -187500.015625, -0.09600000083446503, -0.6380000114440918, 0.7680000066757202, 192.0, 0.0, 0.0, 0.0, 0.0, 0.0, 0.0, 0.0, 0.0, 0.0, 1.6137590076820552E9, 2021-02-19 16:23:27.682
68.0, -15312.9111328125, 18550.001953125, -15192.5029296875, 136473.78125, -187500.015625, -143931.90625, -187500.015625, -187500.015625, -0.09600000083446503, -0.6380000114440918, 0.7680000066757202, 192.0, 0.0, 0.0, 0.0, 0.0, 0.0, 0.0, 0.0, 0.0, 0.0, 1.6137590076850755E9, 2021-02-19 16:23:27.685
69.0, -15371.205078125, 18246.734375, -15493.4013671875, 136172.015625, -187500.015625, -141708.40625, -187500.015625, -187500.015625, -0.09600000083446503, -0.6380000114440918, 0.7680000066757202, 192.0, 0.0, 0.0, 0.0, 0.0, 0.0, 0.0, 0.0, 0.0, 0.0, 1.613759007689294E9, 2021-02-19 16:23:27.689
70.0, -15636.005859375, 18301.943359375, -15443.2890625, 136214.4375, -187500.015625, -141134.5625, -187500.015625, -187500.015625, -0.09600000083446503, -0.6380000114440918, 0.7680000066757202, 192.0, 0.0, 0.0, 0.0, 0.0, 0.0, 0.0, 0.0, 0.0, 0.0, 1.613759007692052E9, 2021-02-19 16:23:27.692
71.0, -15614.32421875, 18601.970703125, -15145.876953125, 136512.0, -187500.015625, -143345.109375, -187500.015625, -187500.015625, -0.09600000083446503, -0.6380000114440918, 0.7680000066757202, 192.0, 0.0, 0.0, 0.0, 0.0, 0.0, 0.0, 0.0, 0.0, 0.0, 1.6137590076960895E9, 2021-02-19 16:23:27.696
72.0, -15337.453125, 18592.8515625, -15149.05078125, 136512.359375, -187500.015625, -144181.21875, -187500.015625, -187500.015625, -0.09600000083446503, -0.6380000114440918, 0.7680000066757202, 192.0, 0.0, 0.0, 0.0, 0.0, 0.0, 0.0, 0.0, 0.0, 0.0, 1.6137590076990905E9, 2021-02-19 16:23:27.699
73.0, -15341.0302734375, 18286.833984375, -15450.12890625, 136209.515625, -187500.015625, -142142.65625, -187500.015625, -187500.015625, -0.09600000083446503, -0.6380000114440918, 0.7680000066757202, 192.0, 0.0, 0.0, 0.0, 0.0, 0.0, 0.0, 0.0, 0.0, 0.0, 1.613759007702166E9, 2021-02-19 16:23:27.702
74.0, -15583.255859375, 18282.564453125, -15458.3984375, 136195.125, -187500.015625, -141003.0625, -187500.015625, -187500.015625, -0.09600000083446503, -0.6380000114440918, 0.7680000066757202, 192.0, 0.0, 0.0, 0.0, 0.0, 0.0, 0.0, 0.0, 0.0, 0.0, 1.6137590077061174E9, 2021-02-19 16:23:27.706
75.0, -15649.55078125, 18547.611328125, -15200.99609375, 136454.5625, -187500.015625, -142951.625, -187500.015625, -187500.015625, -0.09600000083446503, -0.6380000114440918, 0.7680000066757202, 192.0, 0.0, 0.0, 0.0, 0.0, 0.0, 0.0, 0.0, 0.0, 0.0, 1.6137590077092533E9, 2021-02-19 16:23:27.709
76.0, -15398.697265625, 18596.203125, -15151.7109375, 136512.515625, -187500.015625, -144309.46875, -187500.015625, -187500.015625, -0.09400000423192978, -0.6320000290870667, 0.7680000066757202, 192.0, 253.0, 16.0, 236.0, 64.0, 24.0, 0.0, 0.0, 0.0, 0.0, 1.6137590077120843E9, 2021-02-19 16:23:27.712
77.0, -15327.4619140625, 18351.072265625, -15389.4208984375, 136273.0625, -187500.015625, -142581.078125, -187500.015625, -187500.015625, -0.09400000423192978, -0.6320000290870667, 0.7680000066757202, 192.0, 0.0, 0.0, 0.0, 0.0, 0.0, 0.0, 0.0, 0.0, 0.0, 1.6137590077161164E9, 2021-02-19 16:23:27.716
78.0, -15519.732421875, 18267.498046875, -15472.123046875, 136183.0, -187500.015625, -140965.203125, -187500.015625, -187500.015625, -0.09400000423192978, -0.6320000290870667, 0.7680000066757202, 192.0, 0.0, 0.0, 0.0, 0.0, 0.0, 0.0, 0.0, 0.0, 0.0, 1.6137590077191389E9, 2021-02-19 16:23:27.719
79.0, -15664.302734375, 18517.90625, -15228.4443359375, 136424.625, -187500.015625, -142530.25, -187500.015625, -187500.015625, -0.09400000423192978, -0.6320000290870667, 0.7680000066757202, 192.0, 0.0, 0.0, 0.0, 0.0, 0.0, 0.0, 0.0, 0.0, 0.0, 1.613759007723106E9, 2021-02-19 16:23:27.723
80.0, -15426.771484375, 18641.578125, -15104.771484375, 136555.46875, -187500.015625, -144328.890625, -187500.015625, -187500.015625, -0.09400000423192978, -0.6320000290870667, 0.7680000066757202, 192.0, 0.0, 0.0, 0.0, 0.0, 0.0, 0.0, 0.0, 0.0, 0.0, 1.6137590077261257E9, 2021-02-19 16:23:27.726
81.0, -15280.2333984375, 18440.03125, -15300.6845703125, 136363.296875, -187500.015625, -143022.484375, -187500.015625, -187500.015625, -0.09400000423192978, -0.6320000290870667, 0.7680000066757202, 192.0, 0.0, 0.0, 0.0, 0.0, 0.0, 0.0, 0.0, 0.0, 0.0, 1.6137590077302763E9, 2021-02-19 16:23:27.730
82.0, -15448.4296875, 18265.173828125, -15474.8271484375, 136183.828125, -187500.015625, -141036.46875, -187500.015625, -187500.015625, -0.09400000423192978, -0.6320000290870667, 0.7680000066757202, 192.0, 0.0, 0.0, 0.0, 0.0, 0.0, 0.0, 0.0, 0.0, 0.0, 1.6137590077331092E9, 2021-02-19 16:23:27.733
83.0, -15648.9921875, 18483.841796875, -15262.91015625, 136390.96875, -187500.015625, -142118.515625, -187500.015625, -187500.015625, -0.09400000423192978, -0.6320000290870667, 0.7680000066757202, 192.0, 0.0, 0.0, 0.0, 0.0, 0.0, 0.0, 0.0, 0.0, 0.0, 1.613759007736133E9, 2021-02-19 16:23:27.736
84.0, -15449.4580078125, 18686.37109375, -15061.6103515625, 136597.609375, -187500.015625, -144226.8125, -187500.015625, -187500.015625, -0.09400000423192978, -0.6320000290870667, 0.7680000066757202, 192.0, 0.0, 0.0, 0.0, 0.0, 0.0, 0.0, 0.0, 0.0, 0.0, 1.6137590077391448E9, 2021-02-19 16:23:27.739
85.0, -15266.28515625, 18483.013671875, -15261.3681640625, 136403.84375, -187500.015625, -143437.265625, -187500.015625, -187500.015625, -0.09800000488758087, -0.6340000033378601, 0.7760000228881836, 192.0, 252.0, 240.0, 236.0, 48.0, 24.0, 64.0, 0.0, 0.0, 0.0, 1.6137590077431571E9, 2021-02-19 16:23:27.743
86.0, -15406.185546875, 18259.609375, -15484.21484375, 136179.109375, -187500.015625, -141220.328125, -187500.015625, -187500.015625, -0.09800000488758087, -0.6340000033378601, 0.7760000228881836, 192.0, 0.0, 0.0, 0.0, 0.0, 0.0, 0.0, 0.0, 0.0, 0.0, 1.6137590077461317E9, 2021-02-19 16:23:27.746
87.0, -15651.115234375, 18405.07421875, -15344.62890625, 136313.375, -187500.015625, -141715.578125, -187500.015625, -187500.015625, -0.09800000488758087, -0.6340000033378601, 0.7760000228881836, 192.0, 0.0, 0.0, 0.0, 0.0, 0.0, 0.0, 0.0, 0.0, 0.0, 1.6137590077502875E9, 2021-02-19 16:23:27.750
88.0, -15559.048828125, 18579.1484375, -15171.2685546875, 136489.265625, -187500.015625, -143966.828125, -187500.015625, -187500.015625, -0.09800000488758087, -0.6340000033378601, 0.7760000228881836, 192.0, 0.0, 0.0, 0.0, 0.0, 0.0, 0.0, 0.0, 0.0, 0.0, 1.6137590077531855E9, 2021-02-19 16:23:27.753
89.0, -15354.462890625, 18470.4296875, -15273.7060546875, 136389.125, -187500.015625, -143725.828125, -187500.015625, -187500.015625, -0.09800000488758087, -0.6340000033378601, 0.7760000228881836, 192.0, 0.0, 0.0, 0.0, 0.0, 0.0, 0.0, 0.0, 0.0, 0.0, 1.6137590077561524E9, 2021-02-19 16:23:27.756
90.0, -15410.7900390625, 18232.048828125, -15507.908203125, 136151.828125, -187500.015625, -141443.3125, -187500.015625, -187500.015625, -0.09800000488758087, -0.6340000033378601, 0.7760000228881836, 192.0, 0.0, 0.0, 0.0, 0.0, 0.0, 0.0, 0.0, 0.0, 0.0, 1.6137590077601357E9, 2021-02-19 16:23:27.760
91.0, -15668.7060546875, 18328.630859375, -15417.3837890625, 136236.71875, -187500.015625, -141322.234375, -187500.015625, -187500.015625, -0.09800000488758087, -0.6340000033378601, 0.7760000228881836, 192.0, 0.0, 0.0, 0.0, 0.0, 0.0, 0.0, 0.0, 0.0, 0.0, 1.613759007763154E9, 2021-02-19 16:23:27.763
92.0, -15597.158203125, 18608.453125, -15142.1884765625, 136516.875, -187500.015625, -143607.40625, -187500.015625, -187500.015625, -0.09800000488758087, -0.6340000033378601, 0.7760000228881836, 192.0, 0.0, 0.0, 0.0, 0.0, 0.0, 0.0, 0.0, 0.0, 0.0, 1.6137590077661796E9, 2021-02-19 16:23:27.766
93.0, -15344.740234375, 18528.791015625, -15218.2294921875, 136447.25, -187500.015625, -143970.171875, -187500.015625, -187500.015625, -0.09800000488758087, -0.6340000033378601, 0.7760000228881836, 192.0, 0.0, 0.0, 0.0, 0.0, 0.0, 0.0, 0.0, 0.0, 0.0, 1.6137590077701666E9, 2021-02-19 16:23:27.770
94.0, -15376.5693359375, 18264.03515625, -15481.130859375, 136182.515625, -187500.015625, -141752.5, -187500.015625, -187500.015625, -0.09800000488758087, -0.6340000033378601, 0.7760000228881836, 192.0, 0.0, 0.0, 0.0, 0.0, 0.0, 0.0, 0.0, 0.0, 0.0, 1.6137590077733133E9, 2021-02-19 16:23:27.773
95.0, -15607.216796875, 18330.59765625, -15419.283203125, 136237.453125, -187500.015625, -141057.453125, -187500.015625, -187500.015625, -0.09800000488758087, -0.6360000371932983, 0.7660000324249268, 192.0, 252.0, 240.0, 236.0, 32.0, 23.0, 240.0, 0.0, 0.0, 0.0, 1.61375900777617E9, 2021-02-19 16:23:27.776
96.0, -15611.59765625, 18601.634765625, -15152.0908203125, 136506.75, -187500.015625, -143198.859375, -187500.015625, -187500.015625, -0.09800000488758087, -0.6360000371932983, 0.7660000324249268, 192.0, 0.0, 0.0, 0.0, 0.0, 0.0, 0.0, 0.0, 0.0, 0.0, 1.6137590077792256E9, 2021-02-19 16:23:27.779
97.0, -15355.87109375, 18579.73046875, -15170.1728515625, 136497.203125, -187500.015625, -144140.859375, -187500.015625, -187500.015625, -0.09800000488758087, -0.6360000371932983, 0.7660000324249268, 192.0, 0.0, 0.0, 0.0, 0.0, 0.0, 0.0, 0.0, 0.0, 0.0, 1.6137590077832057E9, 2021-02-19 16:23:27.783
98.0, -15369.8857421875, 18266.134765625, -15479.9013671875, 136187.859375, -187500.015625, -142132.921875, -187500.015625, -187500.015625, -0.09800000488758087, -0.6360000371932983, 0.7660000324249268, 192.0, 0.0, 0.0, 0.0, 0.0, 0.0, 0.0, 0.0, 0.0, 0.0, 1.613759007786184E9, 2021-02-19 16:23:27.786
99.0, -15578.919921875, 18282.2734375, -15467.3837890625, 136194.1875, -187500.015625, -140873.03125, -187500.015625, -187500.015625, -0.09800000488758087, -0.6360000371932983, 0.7660000324249268, 192.0, 0.0, 0.0, 0.0, 0.0, 0.0, 0.0, 0.0, 0.0, 0.0, 1.613759007790332E9, 2021-02-19 16:23:27.790
100.0, -15640.0517578125, 18566.654296875, -15188.099609375, 136471.359375, -187500.015625, -142719.296875, -187500.015625, -187500.015625, -0.09800000488758087, -0.6360000371932983, 0.7660000324249268, 192.0, 0.0, 0.0, 0.0, 0.0, 0.0, 0.0, 0.0, 0.0, 0.0, 1.613759007793187E9, 2021-02-19 16:23:27.793
101.0, -15374.78125, 18653.24609375, -15096.904296875, 136566.5625, -187500.015625, -144119.625, -187500.015625, -187500.015625, -0.09800000488758087, -0.6360000371932983, 0.7660000324249268, 192.0, 0.0, 0.0, 0.0, 0.0, 0.0, 0.0, 0.0, 0.0, 0.0, 1.6137590077972438E9, 2021-02-19 16:23:27.797
102.0, -15314.23046875, 18351.541015625, -15392.4384765625, 136272.40625, -187500.015625, -142453.90625, -187500.015625, -187500.015625, -0.09800000488758087, -0.6360000371932983, 0.7660000324249268, 192.0, 0.0, 0.0, 0.0, 0.0, 0.0, 0.0, 0.0, 0.0, 0.0, 1.6137590078002515E9, 2021-02-19 16:23:27.800
103.0, -15530.5947265625, 18239.4921875, -15506.052734375, 136153.546875, -187500.015625, -140764.671875, -187500.015625, -187500.015625, -0.09800000488758087, -0.6360000371932983, 0.7660000324249268, 192.0, 0.0, 0.0, 0.0, 0.0, 0.0, 0.0, 0.0, 0.0, 0.0, 1.613759007803246E9, 2021-02-19 16:23:27.803
104.0, -15674.3837890625, 18515.111328125, -15239.0390625, 136418.703125, -187500.015625, -142222.328125, -187500.015625, -187500.015625, -0.09800000488758087, -0.6360000371932983, 0.7660000324249268, 192.0, 0.0, 0.0, 0.0, 0.0, 0.0, 0.0, 0.0, 0.0, 0.0, 1.6137590078072107E9, 2021-02-19 16:23:27.807
105.0, -15423.8876953125, 18666.0078125, -15089.908203125, 136575.796875, -187500.015625, -144201.484375, -187500.015625, -187500.015625, -0.10200000554323196, -0.64000004529953, 0.7700000405311584, 192.0, 252.0, 208.0, 236.0, 0.0, 24.0, 16.0, 0.0, 0.0, 0.0, 1.6137590078102016E9, 2021-02-19 16:23:27.810
106.0, -15289.46484375, 18434.376953125, -15316.7783203125, 136352.546875, -187500.015625, -143007.171875, -187500.015625, -187500.015625, -0.10200000554323196, -0.64000004529953, 0.7700000405311584, 192.0, 0.0, 0.0, 0.0, 0.0, 0.0, 0.0, 0.0, 0.0, 0.0, 1.6137590078142378E9, 2021-02-19 16:23:27.814
107.0, -15449.5029296875, 18256.412109375, -15494.83203125, 136172.390625, -187500.015625, -140933.25, -187500.015625, -187500.015625, -0.10200000554323196, -0.64000004529953, 0.7700000405311584, 192.0, 0.0, 0.0, 0.0, 0.0, 0.0, 0.0, 0.0, 0.0, 0.0, 1.6137590078173387E9, 2021-02-19 16:23:27.817
108.0, -15673.0654296875, 18440.27734375, -15316.95703125, 136345.546875, -187500.015625, -141853.859375, -187500.015625, -187500.015625, -0.10200000554323196, -0.64000004529953, 0.7700000405311584, 192.0, 0.0, 0.0, 0.0, 0.0, 0.0, 0.0, 0.0, 0.0, 0.0, 1.6137590078214083E9, 2021-02-19 16:23:27.821
109.0, -15511.1494140625, 18623.673828125, -15135.6171875, 136534.0625, -187500.015625, -143990.15625, -187500.015625, -187500.015625, -0.10200000554323196, -0.64000004529953, 0.7700000405311584, 192.0, 0.0, 0.0, 0.0, 0.0, 0.0, 0.0, 0.0, 0.0, 0.0, 1.6137590078242438E9, 2021-02-19 16:23:27.824
110.0, -15320.6455078125, 18458.13671875, -15297.890625, 136376.1875, -187500.015625, -143342.09375, -187500.015625, -187500.015625, -0.10200000554323196, -0.64000004529953, 0.7700000405311584, 192.0, 0.0, 0.0, 0.0, 0.0, 0.0, 0.0, 0.0, 0.0, 0.0, 1.6137590078283153E9, 2021-02-19 16:23:27.828
111.0, -15424.46875, 18251.205078125, -15502.4541015625, 136166.734375, -187500.015625, -141097.328125, -187500.015625, -187500.015625, -0.10200000554323196, -0.64000004529953, 0.7700000405311584, 192.0, 0.0, 0.0, 0.0, 0.0, 0.0, 0.0, 0.0, 0.0, 0.0, 1.6137590078312445E9, 2021-02-19 16:23:27.831
112.0, -15653.7529296875, 18409.87890625, -15349.478515625, 136312.015625, -187500.015625, -141434.140625, -187500.015625, -187500.015625, -0.10200000554323196, -0.64000004529953, 0.7700000405311584, 192.0, 0.0, 0.0, 0.0, 0.0, 0.0, 0.0, 0.0, 0.0, 0.0, 1.6137590078353896E9, 2021-02-19 16:23:27.835
113.0, -15533.4111328125, 18651.14453125, -15110.9853515625, 136555.5, -187500.015625, -143723.046875, -187500.015625, -187500.015625, -0.10200000554323196, -0.64000004529953, 0.7700000405311584, 192.0, 0.0, 0.0, 0.0, 0.0, 0.0, 0.0, 0.0, 0.0, 0.0, 1.613759007838422E9, 2021-02-19 16:23:27.838
114.0, -15304.6630859375, 18521.125, -15236.333984375, 136436.65625, -187500.015625, -143667.546875, -187500.015625, -187500.015625, -0.10200000554323196, -0.64000004529953, 0.7700000405311584, 192.0, 0.0, 0.0, 0.0, 0.0, 0.0, 0.0, 0.0, 0.0, 0.0, 1.6137590078422844E9, 2021-02-19 16:23:27.842
115.0, -15373.328125, 18260.79296875, -15494.0498046875, 136178.28125, -187500.015625, -141384.953125, -187500.015625, -187500.015625, -0.10200000554323196, -0.64000004529953, 0.7720000147819519, 192.0, 252.0, 208.0, 236.0, 0.0, 24.0, 32.0, 0.0, 0.0, 0.0, 1.6137590078452597E9, 2021-02-19 16:23:27.845
116.0, -15639.380859375, 18330.798828125, -15428.9169921875, 136236.78125, -187500.015625, -141111.71875, -187500.015625, -187500.015625, -0.10200000554323196, -0.64000004529953, 0.7720000147819519, 192.0, 0.0, 0.0, 0.0, 0.0, 0.0, 0.0, 0.0, 0.0, 0.0, 1.6137590078483093E9, 2021-02-19 16:23:27.848
117.0, -15615.4423828125, 18580.3125, -15182.17578125, 136483.75, -187500.015625, -143368.375, -187500.015625, -187500.015625, -0.10200000554323196, -0.64000004529953, 0.7720000147819519, 192.0, 0.0, 0.0, 0.0, 0.0, 0.0, 0.0, 0.0, 0.0, 0.0, 1.61375900785227E9, 2021-02-19 16:23:27.852
118.0, -15338.056640625, 18579.88671875, -15177.7060546875, 136492.28125, -187500.015625, -143896.484375, -187500.015625, -187500.015625, -0.10200000554323196, -0.64000004529953, 0.7720000147819519, 192.0, 0.0, 0.0, 0.0, 0.0, 0.0, 0.0, 0.0, 0.0, 0.0, 1.613759007855524E9, 2021-02-19 16:23:27.855
119.0, -15310.6318359375, 18339.13671875, -15415.7294921875, 136255.578125, -187500.015625, -141740.1875, -187500.015625, -187500.015625, -0.10200000554323196, -0.64000004529953, 0.7720000147819519, 192.0, 0.0, 0.0, 0.0, 0.0, 0.0, 0.0, 0.0, 0.0, 0.0, 1.6137590078584456E9, 2021-02-19 16:23:27.858
120.0, -15554.5556640625, 18336.9453125, -15422.2333984375, 136243.953125, -187500.015625, -140886.765625, -187500.015625, -187500.015625, -0.10200000554323196, -0.64000004529953, 0.7720000147819519, 192.0, 0.0, 0.0, 0.0, 0.0, 0.0, 0.0, 0.0, 0.0, 0.0, 1.6137590078623085E9, 2021-02-19 16:23:27.862
121.0, -15602.0537109375, 18602.283203125, -15161.322265625, 136503.78125, -187500.015625, -142982.546875, -187500.015625, -187500.015625, -0.10200000554323196, -0.64000004529953, 0.7720000147819519, 192.0, 0.0, 0.0, 0.0, 0.0, 0.0, 0.0, 0.0, 0.0, 0.0, 1.6137590078662884E9, 2021-02-19 16:23:27.866
122.0, -15337.029296875, 18634.08984375, -15127.4814453125, 136544.59375, -187500.015625, -144072.078125, -187500.015625, -187500.015625, -0.10200000554323196, -0.64000004529953, 0.7720000147819519, 192.0, 0.0, 0.0, 0.0, 0.0, 0.0, 0.0, 0.0, 0.0, 0.0, 1.6137590078693168E9, 2021-02-19 16:23:27.869
123.0, -15298.4716796875, 18344.76953125, -15411.68359375, 136261.953125, -187500.015625, -142162.59375, -187500.015625, -187500.015625, -0.10200000554323196, -0.64000004529953, 0.7720000147819519, 192.0, 0.0, 0.0, 0.0, 0.0, 0.0, 0.0, 0.0, 0.0, 0.0, 1.613759007873325E9, 2021-02-19 16:23:27.873
124.0, -15551.5830078125, 18254.22265625, -15505.560546875, 136163.765625, -187500.015625, -140780.78125, -187500.015625, -187500.015625, -0.10200000554323196, -0.64000004529953, 0.7720000147819519, 192.0, 0.0, 0.0, 0.0, 0.0, 0.0, 0.0, 0.0, 0.0, 0.0, 1.6137590078764446E9, 2021-02-19 16:23:27.876
125.0, -15668.2373046875, 18524.65625, -15240.8271484375, 136427.84375, -187500.015625, -142567.78125, -187500.015625, -187500.015625, -0.10200000554323196, -0.6380000114440918, 0.7740000486373901, 192.0, 252.0, 208.0, 236.0, 16.0, 24.0, 48.0, 0.0, 0.0, 0.0, 1.6137590078803263E9, 2021-02-19 16:23:27.880
126.0, -15435.041015625, 18578.1875, -15183.427734375, 136490.59375, -187500.015625, -144120.9375, -187500.015625, -187500.015625, -0.10200000554323196, -0.6380000114440918, 0.7740000486373901, 192.0, 0.0, 0.0, 0.0, 0.0, 0.0, 0.0, 0.0, 0.0, 0.0, 1.6137590078834937E9, 2021-02-19 16:23:27.883
127.0, -15341.8349609375, 18352.658203125, -15405.783203125, 136270.59375, -187500.015625, -142578.0625, -187500.015625, -187500.015625, -0.10200000554323196, -0.6380000114440918, 0.7740000486373901, 192.0, 0.0, 0.0, 0.0, 0.0, 0.0, 0.0, 0.0, 0.0, 0.0, 1.613759007886329E9, 2021-02-19 16:23:27.886
128.0, -15501.984375, 18247.248046875, -15511.685546875, 136158.3125, -187500.015625, -140780.6875, -187500.015625, -187500.015625, -0.10200000554323196, -0.6380000114440918, 0.7740000486373901, 192.0, 0.0, 0.0, 0.0, 0.0, 0.0, 0.0, 0.0, 0.0, 0.0, 1.6137590078903344E9, 2021-02-19 16:23:27.890
129.0, -15680.4189453125, 18469.08984375, -15294.8955078125, 136370.3125, -187500.015625, -142116.03125, -187500.015625, -187500.015625, -0.10200000554323196, -0.6380000114440918, 0.7740000486373901, 192.0, 0.0, 0.0, 0.0, 0.0, 0.0, 0.0, 0.0, 0.0, 0.0, 1.6137590078933396E9, 2021-02-19 16:23:27.893
130.0, -15469.5078125, 18628.501953125, -15134.25390625, 136537.171875, -187500.015625, -144056.0, -187500.015625, -187500.015625, -0.10200000554323196, -0.6380000114440918, 0.7740000486373901, 192.0, 0.0, 0.0, 0.0, 0.0, 0.0, 0.0, 0.0, 0.0, 0.0, 1.6137590078964908E9, 2021-02-19 16:23:27.896
131.0, -15298.6953125, 18437.70703125, -15317.0244140625, 136356.25, -187500.015625, -143001.03125, -187500.015625, -187500.015625, -0.10200000554323196, -0.6380000114440918, 0.7740000486373901, 192.0, 0.0, 0.0, 0.0, 0.0, 0.0, 0.0, 0.0, 0.0, 0.0, 1.6137590079004097E9, 2021-02-19 16:23:27.900
132.0, -15445.3232421875, 18254.7578125, -15497.9619140625, 136168.28125, -187500.015625, -140915.359375, -187500.015625, -187500.015625, -0.10200000554323196, -0.6380000114440918, 0.7740000486373901, 192.0, 0.0, 0.0, 0.0, 0.0, 0.0, 0.0, 0.0, 0.0, 0.0, 1.613759007903324E9, 2021-02-19 16:23:27.903
133.0, -15666.2705078125, 18430.017578125, -15328.177734375, 136332.25, -187500.015625, -141724.1875, -187500.015625, -187500.015625, -0.10200000554323196, -0.6380000114440918, 0.7740000486373901, 192.0, 0.0, 0.0, 0.0, 0.0, 0.0, 0.0, 0.0, 0.0, 0.0, 1.613759007907366E9, 2021-02-19 16:23:27.907
134.0, -15521.3193359375, 18638.314453125, -15120.4404296875, 136544.078125, -187500.015625, -143914.25, -187500.015625, -187500.015625, -0.10200000554323196, -0.6380000114440918, 0.7740000486373901, 192.0, 0.0, 0.0, 0.0, 0.0, 0.0, 0.0, 0.0, 0.0, 0.0, 1.6137590079105196E9, 2021-02-19 16:23:27.910
135.0, -15310.0283203125, 18488.982421875, -15264.2958984375, 136405.703125, -187500.015625, -143412.046875, -187500.015625, -187500.015625, -0.09800000488758087, -0.6340000033378601, 0.7760000228881836, 192.0, 252.0, 240.0, 236.0, 48.0, 24.0, 64.0, 0.0, 0.0, 0.0, 1.6137590079135644E9, 2021-02-19 16:23:27.913
136.0, -15409.626953125, 18256.501953125, -15495.9501953125, 136174.109375, -187500.015625, -141183.609375, -187500.015625, -187500.015625, -0.09800000488758087, -0.6340000033378601, 0.7760000228881836, 192.0, 0.0, 0.0, 0.0, 0.0, 0.0, 0.0, 0.0, 0.0, 0.0, 1.6137590079174557E9, 2021-02-19 16:23:27.917
137.0, -15653.865234375, 18388.869140625, -15370.0419921875, 136295.203125, -187500.015625, -141398.0625, -187500.015625, -187500.015625, -0.09800000488758087, -0.6340000033378601, 0.7760000228881836, 192.0, 0.0, 0.0, 0.0, 0.0, 0.0, 0.0, 0.0, 0.0, 0.0, 1.6137590079203837E9, 2021-02-19 16:23:27.920
138.0, -15562.7587890625, 18620.923828125, -15140.4677734375, 136529.25, -187500.015625, -143687.203125, -187500.015625, -187500.015625, -0.09800000488758087, -0.6340000033378601, 0.7760000228881836, 192.0, 0.0, 0.0, 0.0, 0.0, 0.0, 0.0, 0.0, 0.0, 0.0, 1.6137590079233713E9, 2021-02-19 16:23:27.923
139.0, -15347.2431640625, 18495.240234375, -15259.9375, 136414.015625, -187500.015625, -143764.78125, -187500.015625, -187500.015625, -0.09800000488758087, -0.6340000033378601, 0.7760000228881836, 192.0, 0.0, 0.0, 0.0, 0.0, 0.0, 0.0, 0.0, 0.0, 0.0, 1.613759007926402E9, 2021-02-19 16:23:27.926
140.0, -15401.201171875, 18237.14453125, -15513.4287109375, 136159.828125, -187500.015625, -141528.9375, -187500.015625, -187500.015625, -0.09800000488758087, -0.6340000033378601, 0.7760000228881836, 192.0, 0.0, 0.0, 0.0, 0.0, 0.0, 0.0, 0.0, 0.0, 0.0, 1.613759007930539E9, 2021-02-19 16:23:27.930
141.0, -15674.4951171875, 18283.5703125, -15469.955078125, 136195.40625, -187500.015625, -141119.59375, -187500.015625, -187500.015625, -0.09800000488758087, -0.6340000033378601, 0.7760000228881836, 192.0, 0.0, 0.0, 0.0, 0.0, 0.0, 0.0, 0.0, 0.0, 0.0, 1.613759007933391E9, 2021-02-19 16:23:27.933
142.0, -15643.5380859375, 18578.12109375, -15179.494140625, 136488.859375, -187500.015625, -143362.25, -187500.015625, -187500.015625, -0.09800000488758087, -0.6340000033378601, 0.7760000228881836, 192.0, 0.0, 0.0, 0.0, 0.0, 0.0, 0.0, 0.0, 0.0, 0.0, 1.6137590079363756E9, 2021-02-19 16:23:27.936
143.0, -15377.8427734375, 18556.55078125, -15196.771484375, 136478.5, -187500.015625, -144039.234375, -187500.015625, -187500.015625, -0.09800000488758087, -0.6340000033378601, 0.7760000228881836, 192.0, 0.0, 0.0, 0.0, 0.0, 0.0, 0.0, 0.0, 0.0, 0.0, 1.6137590079395146E9, 2021-02-19 16:23:27.939
144.0, -15334.7041015625, 18340.857421875, -15408.9794921875, 136266.78125, -187500.015625, -141964.109375, -187500.015625, -187500.015625, -0.09800000488758087, -0.6340000033378601, 0.7760000228881836, 192.0, 0.0, 0.0, 0.0, 0.0, 0.0, 0.0, 0.0, 0.0, 0.0, 1.6137590079433975E9, 2021-02-19 16:23:27.943
145.0, -15578.919921875, 18292.82421875, -15459.6953125, 136209.9375, -187500.015625, -140995.625, -187500.015625, -187500.015625, -0.10000000149011612, -0.6340000033378601, 0.7760000228881836, 192.0, 252.0, 224.0, 236.0, 48.0, 24.0, 64.0, 0.0, 0.0, 0.0, 1.6137590079464867E9, 2021-02-19 16:23:27.946
