%OpenBCI Raw EEG Data
%Number of channels = 8
%Sample Rate = 250 Hz
%Board = OpenBCI_GUI$BoardCytonSerial
Sample Index, EXG Channel 0, EXG Channel 1, EXG Channel 2, EXG Channel 3, EXG Channel 4, EXG Channel 5, EXG Channel 6, EXG Channel 7, Accel Channel 0, Accel Channel 1, Accel Channel 2, Other, Other, Other, Other, Other, Other, Other, Analog Channel 0, Analog Channel 1, Analog Channel 2, Timestamp, Timestamp (Formatted)
29.0, -10750.1162109375, 20065.853515625, -13385.251953125, 135118.8125, -187500.015625, -147294.453125, -187500.015625, -187500.015625, 0.0, 0.0, 0.0, 192.0, 0.0, 0.0, 0.0, 0.0, 0.0, 0.0, 0.0, 0.0, 0.0, 1.6137596849328501E9, 2021-02-19 16:34:44.932
64.0, -11251.8896484375, 20555.78125, -12896.419921875, 135552.171875, -187500.015625, -154528.671875, -187500.015625, -187500.015625, 0.0, 0.0, 0.0, 192.0, 0.0, 0.0, 0.0, 0.0, 0.0, 0.0, 0.0, 0.0, 0.0, 1.6137596849328544E9, 2021-02-19 16:34:44.932
33.0, -10700.986328125, 19990.638671875, -13457.76171875, 135038.96875, -187500.015625, -147686.84375, -187500.015625, -187500.015625, 0.0, 0.0, 0.0, 192.0, 0.0, 0.0, 0.0, 0.0, 0.0, 0.0, 0.0, 0.0, 0.0, 1.6137596849328578E9, 2021-02-19 16:34:44.932
40.0, -10594.01171875, 20037.734375, -13409.6826171875, 135102.359375, -187500.015625, -149646.625, -187500.015625, -187500.015625, 0.0, 0.0, 0.0, 192.0, 0.0, 0.0, 0.0, 0.0, 0.0, 0.0, 0.0, 0.0, 0.0, 1.6137596849328616E9, 2021-02-19 16:34:44.932
41.0, -10487.37109375, 19860.373046875, -13588.7646484375, 134912.59375, -187500.015625, -147958.1875, -187500.015625, -187500.015625, 0.0, 0.0, 0.0, 192.0, 0.0, 0.0, 0.0, 0.0, 0.0, 0.0, 0.0, 0.0, 0.0, 1.613759684932865E9, 2021-02-19 16:34:44.932
88.0, -11005.126953125, 20285.66015625, -13172.8662109375, 135247.078125, -187500.015625, -154639.671875, -187500.015625, -187500.015625, 0.0, 0.0, 0.0, 192.0, 0.0, 0.0, 0.0, 0.0, 0.0, 0.0, 0.0, 0.0, 0.0, 1.6137596849328687E9, 2021-02-19 16:34:44.932
60.0, -11100.703125, 20370.306640625, -13078.720703125, 135382.59375, -187500.015625, -152702.78125, -187500.015625, -187500.015625, 0.0, 0.0, 0.0, 192.0, 0.0, 0.0, 0.0, 0.0, 0.0, 0.0, 0.0, 0.0, 0.0, 1.613759684932876E9, 2021-02-19 16:34:44.932
86.0, -10584.1318359375, 20048.375, -13398.3505859375, 135039.46875, -187500.015625, -154367.6875, -187500.015625, -187500.015625, 0.0, 0.0, 0.0, 192.0, 0.0, 0.0, 0.0, 0.0, 0.0, 0.0, 0.0, 0.0, 0.0, 1.613759684932893E9, 2021-02-19 16:34:44.932
45.0, -10436.07421875, 19880.22265625, -13566.14453125, 134935.53125, -187500.015625, -148082.15625, -187500.015625, -187500.015625, 0.0, 0.0, 0.0, 192.0, 0.0, 0.0, 0.0, 0.0, 0.0, 0.0, 0.0, 0.0, 0.0, 1.6137596849328964E9, 2021-02-19 16:34:44.932
84.0, -11092.365234375, 20300.79296875, -13157.8681640625, 135270.765625, -187500.015625, -154858.5625, -187500.015625, -187500.015625, 0.0, 0.0, 0.0, 192.0, 0.0, 0.0, 0.0, 0.0, 0.0, 0.0, 0.0, 0.0, 0.0, 1.6137596849329E9, 2021-02-19 16:34:44.932
69.0, -10788.203125, 20203.78515625, -13242.6484375, 135208.25, -187500.015625, -154219.96875, -187500.015625, -187500.015625, 0.0, 0.0, 0.0, 192.0, 0.0, 0.0, 0.0, 0.0, 0.0, 0.0, 0.0, 0.0, 0.0, 1.613759684932904E9, 2021-02-19 16:34:44.932
56.0, -10941.0888671875, 20271.6015625, -13172.9326171875, 135295.796875, -187500.015625, -151787.703125, -187500.015625, -187500.015625, 0.0, 0.0, 0.0, 192.0, 0.0, 0.0, 0.0, 0.0, 0.0, 0.0, 0.0, 0.0, 0.0, 1.613759684932908E9, 2021-02-19 16:34:44.932
82.0, -10549.62109375, 19985.56640625, -13458.4990234375, 134984.0625, -187500.015625, -153674.546875, -187500.015625, -187500.015625, 0.0, 0.0, 0.0, 192.0, 0.0, 0.0, 0.0, 0.0, 0.0, 0.0, 0.0, 0.0, 0.0, 1.6137596849329145E9, 2021-02-19 16:34:44.932
54.0, -10734.5146484375, 20023.943359375, -13420.478515625, 135039.953125, -187500.015625, -148804.703125, -187500.015625, -187500.015625, 0.0, 0.0, 0.0, 192.0, 0.0, 0.0, 0.0, 0.0, 0.0, 0.0, 0.0, 0.0, 0.0, 1.613759684932921E9, 2021-02-19 16:34:44.932
103.0, -10447.9873046875, 19939.095703125, -13504.587890625, 134917.421875, -187500.015625, -153512.046875, -187500.015625, -187500.015625, 0.0, 0.0, 0.0, 192.0, 0.0, 0.0, 0.0, 0.0, 0.0, 0.0, 0.0, 0.0, 0.0, 1.6137596849329276E9, 2021-02-19 16:34:44.932
52.0, -10810.845703125, 20202.646484375, -13242.6708984375, 135242.796875, -187500.015625, -150922.28125, -187500.015625, -187500.015625, 0.0, 0.0, 0.0, 192.0, 0.0, 0.0, 0.0, 0.0, 0.0, 0.0, 0.0, 0.0, 0.0, 1.613759684932932E9, 2021-02-19 16:34:44.932
101.0, -11043.4150390625, 20327.16796875, -13127.4697265625, 135285.25, -187500.015625, -155638.1875, -187500.015625, -187500.015625, 0.0, 0.0, 0.0, 192.0, 0.0, 0.0, 0.0, 0.0, 0.0, 0.0, 0.0, 0.0, 0.0, 1.613759684932937E9, 2021-02-19 16:34:44.932
78.0, -10512.3828125, 19981.2734375, -13460.197265625, 134983.65625, -187500.015625, -153264.859375, -187500.015625, -187500.015625, 0.0, 0.0, 0.0, 192.0, 0.0, 0.0, 0.0, 0.0, 0.0, 0.0, 0.0, 0.0, 0.0, 1.6137596849329402E9, 2021-02-19 16:34:44.932
73.0, -10824.48046875, 20175.5546875, -13268.978515625, 135175.359375, -187500.015625, -154696.421875, -187500.015625, -187500.015625, 0.0, 0.0, 0.0, 192.0, 0.0, 0.0, 0.0, 0.0, 0.0, 0.0, 0.0, 0.0, 0.0, 1.6137596849329436E9, 2021-02-19 16:34:44.932
99.0, -10440.611328125, 19917.728515625, -13526.3583984375, 134895.453125, -187500.015625, -153354.9375, -187500.015625, -187500.015625, 0.0, 0.0, 0.0, 192.0, 0.0, 0.0, 0.0, 0.0, 0.0, 0.0, 0.0, 0.0, 0.0, 1.6137596849329472E9, 2021-02-19 16:34:44.932
89.0, -11003.517578125, 20399.2734375, -13057.0166015625, 135374.59375, -187500.015625, -156264.5, -187500.015625, -187500.015625, 0.0, 0.0, 0.0, 192.0, 0.0, 0.0, 0.0, 0.0, 0.0, 0.0, 0.0, 0.0, 0.0, 1.6137596849329505E9, 2021-02-19 16:34:44.932
90.0, -10604.583984375, 20132.685546875, -13315.1572265625, 135120.203125, -187500.015625, -154811.390625, -187500.015625, -187500.015625, 0.0, 0.0, 0.0, 192.0, 0.0, 0.0, 0.0, 0.0, 0.0, 0.0, 0.0, 0.0, 0.0, 1.613759684932954E9, 2021-02-19 16:34:44.932
97.0, -11052.69140625, 20347.75390625, -13108.314453125, 135311.71875, -187500.015625, -155981.4375, -187500.015625, -187500.015625, -0.11600000411272049, -0.6480000019073486, 0.7600000500679016, 192.0, 252.0, 96.0, 235.0, 192.0, 23.0, 192.0, 0.0, 0.0, 0.0, 1.6137596849329576E9, 2021-02-19 16:34:44.932
92.0, -10904.923828125, 20197.34765625, -13258.31640625, 135156.6875, -187500.015625, -154094.546875, -187500.015625, -187500.015625, -0.11600000411272049, -0.6480000019073486, 0.7600000500679016, 192.0, 0.0, 0.0, 0.0, 0.0, 0.0, 0.0, 0.0, 0.0, 0.0, 1.6137596849329638E9, 2021-02-19 16:34:44.932
93.0, -11024.9755859375, 20392.322265625, -13063.1640625, 135362.609375, -187500.015625, -156059.140625, -187500.015625, -187500.015625, -0.11600000411272049, -0.6480000019073486, 0.7600000500679016, 192.0, 0.0, 0.0, 0.0, 0.0, 0.0, 0.0, 0.0, 0.0, 0.0, 1.6137596849329672E9, 2021-02-19 16:34:44.932
94.0, -10659.5244140625, 20130.271484375, -13316.140625, 135116.875, -187500.015625, -155098.09375, -187500.015625, -187500.015625, -0.11600000411272049, -0.6480000019073486, 0.7600000500679016, 192.0, 0.0, 0.0, 0.0, 0.0, 0.0, 0.0, 0.0, 0.0, 0.0, 1.6137596849329708E9, 2021-02-19 16:34:44.932
95.0, -10455.1396484375, 19911.58203125, -13533.2431640625, 134891.046875, -187500.015625, -153087.65625, -187500.015625, -187500.015625, -0.11600000411272049, -0.6480000019073486, 0.7600000500679016, 192.0, 0.0, 0.0, 0.0, 0.0, 0.0, 0.0, 0.0, 0.0, 0.0, 1.6137596849329743E9, 2021-02-19 16:34:44.932
104.0, -10629.9755859375, 20036.3046875, -13413.4599609375, 134992.890625, -187500.015625, -153052.265625, -187500.015625, -187500.015625, -0.11600000411272049, -0.6480000019073486, 0.7600000500679016, 192.0, 0.0, 0.0, 0.0, 0.0, 0.0, 0.0, 0.0, 0.0, 0.0, 1.613759684932978E9, 2021-02-19 16:34:44.932
0.0, 0.0, 0.0, 0.0, 0.0, 0.0, 0.0, 0.0, 0.0, -0.11600000411272049, -0.6480000019073486, 0.7600000500679016, 192.0, 0.0, 0.0, 0.0, 0.0, 0.0, 0.0, 0.0, 0.0, 0.0, 1.6137596850254421E9, 2021-02-19 16:34:45.025
1.0, -9722.0478515625, 18302.27734375, -12940.4521484375, 134490.234375, -187500.015625, -145535.578125, -187500.015625, -187500.015625, -0.12200000882148743, -0.6460000276565552, 0.7600000500679016, 192.0, 252.0, 48.0, 235.0, 208.0, 23.0, 192.0, 0.0, 0.0, 0.0, 1.6137596850425484E9, 2021-02-19 16:34:45.042
2.0, -9503.9169921875, 18111.013671875, -13125.123046875, 134305.6875, -187500.015625, -144096.90625, -187500.015625, -187500.015625, -0.12200000882148743, -0.6460000276565552, 0.7600000500679016, 192.0, 0.0, 0.0, 0.0, 0.0, 0.0, 0.0, 0.0, 0.0, 0.0, 1.6137596850454698E9, 2021-02-19 16:34:45.045
3.0, -9582.4609375, 18133.365234375, -13106.0341796875, 134314.328125, -187500.015625, -143595.109375, -187500.015625, -187500.015625, -0.12200000882148743, -0.6460000276565552, 0.7600000500679016, 192.0, 0.0, 0.0, 0.0, 0.0, 0.0, 0.0, 0.0, 0.0, 0.0, 1.6137596850505304E9, 2021-02-19 16:34:45.050
4.0, -9856.224609375, 18280.955078125, -12963.720703125, 134456.421875, -187500.015625, -144936.796875, -187500.015625, -187500.015625, -0.12200000882148743, -0.6460000276565552, 0.7600000500679016, 192.0, 0.0, 0.0, 0.0, 0.0, 0.0, 0.0, 0.0, 0.0, 0.0, 1.6137596850564768E9, 2021-02-19 16:34:45.056
5.0, -9816.3720703125, 18273.6015625, -12970.158203125, 134460.109375, -187500.015625, -145432.484375, -187500.015625, -187500.015625, -0.12200000882148743, -0.6460000276565552, 0.7600000500679016, 192.0, 0.0, 0.0, 0.0, 0.0, 0.0, 0.0, 0.0, 0.0, 0.0, 1.6137596850606008E9, 2021-02-19 16:34:45.060
6.0, -9577.9228515625, 18066.556640625, -13169.5576171875, 134263.484375, -187500.015625, -144181.21875, -187500.015625, -187500.015625, -0.12200000882148743, -0.6460000276565552, 0.7600000500679016, 192.0, 0.0, 0.0, 0.0, 0.0, 0.0, 0.0, 0.0, 0.0, 0.0, 1.6137596850645142E9, 2021-02-19 16:34:45.064
7.0, -9564.9150390625, 18035.912109375, -13199.7998046875, 134223.984375, -187500.015625, -143249.703125, -187500.015625, -187500.015625, -0.12200000882148743, -0.6460000276565552, 0.7600000500679016, 192.0, 0.0, 0.0, 0.0, 0.0, 0.0, 0.0, 0.0, 0.0, 0.0, 1.6137596850675347E9, 2021-02-19 16:34:45.067
8.0, -9862.7744140625, 18214.123046875, -13028.7197265625, 134394.640625, -187500.015625, -144207.484375, -187500.015625, -187500.015625, -0.12600000202655792, -0.64000004529953, 0.7660000324249268, 192.0, 252.0, 16.0, 236.0, 0.0, 23.0, 240.0, 0.0, 0.0, 0.0, 1.6137596850704968E9, 2021-02-19 16:34:45.070
9.0, -9869.703125, 18284.708984375, -12955.115234375, 134476.515625, -187500.015625, -145050.234375, -187500.015625, -187500.015625, -0.12600000202655792, -0.64000004529953, 0.7660000324249268, 192.0, 0.0, 0.0, 0.0, 0.0, 0.0, 0.0, 0.0, 0.0, 0.0, 1.613759685105526E9, 2021-02-19 16:34:45.105
10.0, -9613.6865234375, 18121.654296875, -13111.0859375, 134325.21875, -187500.015625, -143972.5, -187500.015625, -187500.015625, -0.12600000202655792, -0.64000004529953, 0.7660000324249268, 192.0, 0.0, 0.0, 0.0, 0.0, 0.0, 0.0, 0.0, 0.0, 0.0, 1.613759685108746E9, 2021-02-19 16:34:45.108
11.0, -9483.107421875, 18025.36328125, -13206.9521484375, 134222.421875, -187500.015625, -142764.609375, -187500.015625, -187500.015625, -0.12600000202655792, -0.64000004529953, 0.7660000324249268, 192.0, 0.0, 0.0, 0.0, 0.0, 0.0, 0.0, 0.0, 0.0, 0.0, 1.61375968511166E9, 2021-02-19 16:34:45.111
12.0, -9643.458984375, 18204.244140625, -13035.447265625, 134386.390625, -187500.015625, -143459.953125, -187500.015625, -187500.015625, -0.12600000202655792, -0.64000004529953, 0.7660000324249268, 192.0, 0.0, 0.0, 0.0, 0.0, 0.0, 0.0, 0.0, 0.0, 0.0, 1.613759685114569E9, 2021-02-19 16:34:45.114
13.0, -9630.62890625, 18278.5859375, -12960.3681640625, 134470.90625, -187500.015625, -144570.0, -187500.015625, -187500.015625, -0.12600000202655792, -0.64000004529953, 0.7660000324249268, 192.0, 0.0, 0.0, 0.0, 0.0, 0.0, 0.0, 0.0, 0.0, 0.0, 1.6137596851186347E9, 2021-02-19 16:34:45.118
14.0, -9441.443359375, 18130.03515625, -13104.5810546875, 134335.671875, -187500.015625, -144025.0625, -187500.015625, -187500.015625, -0.12600000202655792, -0.64000004529953, 0.7660000324249268, 192.0, 0.0, 0.0, 0.0, 0.0, 0.0, 0.0, 0.0, 0.0, 0.0, 1.6137596851216896E9, 2021-02-19 16:34:45.121
15.0, -9380.6025390625, 18037.521484375, -13194.837890625, 134238.375, -187500.015625, -142731.578125, -187500.015625, -187500.015625, -0.12600000202655792, -0.64000004529953, 0.7660000324249268, 192.0, 0.0, 0.0, 0.0, 0.0, 0.0, 0.0, 0.0, 0.0, 0.0, 1.6137596851247725E9, 2021-02-19 16:34:45.124
16.0, -9699.830078125, 18191.14453125, -13043.046875, 134378.140625, -187500.015625, -143066.71875, -187500.015625, -187500.015625, -0.12600000202655792, -0.64000004529953, 0.7660000324249268, 192.0, 0.0, 0.0, 0.0, 0.0, 0.0, 0.0, 0.0, 0.0, 0.0, 1.6137596851277614E9, 2021-02-19 16:34:45.127
17.0, -9852.134765625, 18360.9296875, -12874.0234375, 134556.296875, -187500.015625, -144345.34375, -187500.015625, -187500.015625, -0.12400000542402267, -0.64000004529953, 0.7680000066757202, 192.0, 252.0, 32.0, 236.0, 0.0, 24.0, 0.0, 0.0, 0.0, 0.0, 1.6137596851316092E9, 2021-02-19 16:34:45.131
18.0, -9596.4755859375, 18230.619140625, -12999.1484375, 134438.296875, -187500.015625, -143972.4375, -187500.015625, -187500.015625, -0.12400000542402267, -0.64000004529953, 0.7680000066757202, 192.0, 0.0, 0.0, 0.0, 0.0, 0.0, 0.0, 0.0, 0.0, 0.0, 1.6137596851346526E9, 2021-02-19 16:34:45.134
19.0, -9373.9638671875, 18018.8125, -13204.158203125, 134228.453125, -187500.015625, -142496.078125, -187500.015625, -187500.015625, -0.12400000542402267, -0.64000004529953, 0.7680000066757202, 192.0, 0.0, 0.0, 0.0, 0.0, 0.0, 0.0, 0.0, 0.0, 0.0, 1.6137596851375773E9, 2021-02-19 16:34:45.137
20.0, -9591.2001953125, 18110.9921875, -13116.5615234375, 134303.765625, -187500.015625, -142489.140625, -187500.015625, -187500.015625, -0.12400000542402267, -0.64000004529953, 0.7680000066757202, 192.0, 0.0, 0.0, 0.0, 0.0, 0.0, 0.0, 0.0, 0.0, 0.0, 1.6137596851417403E9, 2021-02-19 16:34:45.141
21.0, -9857.029296875, 18366.6953125, -12864.61328125, 134560.265625, -187500.015625, -143688.71875, -187500.015625, -187500.015625, -0.12400000542402267, -0.64000004529953, 0.7680000066757202, 192.0, 0.0, 0.0, 0.0, 0.0, 0.0, 0.0, 0.0, 0.0, 0.0, 1.6137596851445992E9, 2021-02-19 16:34:45.144
22.0, -9681.2998046875, 18278.451171875, -12949.5048828125, 134488.515625, -187500.015625, -143693.59375, -187500.015625, -187500.015625, -0.12400000542402267, -0.64000004529953, 0.7680000066757202, 192.0, 0.0, 0.0, 0.0, 0.0, 0.0, 0.0, 0.0, 0.0, 0.0, 1.613759685147588E9, 2021-02-19 16:34:45.147
23.0, -9416.96875, 18075.69921875, -13148.0556640625, 134287.875, -187500.015625, -142265.140625, -187500.015625, -187500.015625, -0.12400000542402267, -0.64000004529953, 0.7680000066757202, 192.0, 0.0, 0.0, 0.0, 0.0, 0.0, 0.0, 0.0, 0.0, 0.0, 1.6137596851516688E9, 2021-02-19 16:34:45.151
24.0, -9508.029296875, 18124.1796875, -13107.509765625, 134320.28125, -187500.015625, -141938.25, -187500.015625, -187500.015625, -0.12400000542402267, -0.64000004529953, 0.7680000066757202, 192.0, 0.0, 0.0, 0.0, 0.0, 0.0, 0.0, 0.0, 0.0, 0.0, 1.613759685154744E9, 2021-02-19 16:34:45.154
25.0, -9724.3720703125, 18342.01953125, -12895.5703125, 134535.953125, -187500.015625, -143487.796875, -187500.015625, -187500.015625, -0.12400000542402267, -0.64000004529953, 0.7680000066757202, 192.0, 0.0, 0.0, 0.0, 0.0, 0.0, 0.0, 0.0, 0.0, 0.0, 1.6137596851576097E9, 2021-02-19 16:34:45.157
26.0, -9582.21484375, 18262.9609375, -12970.2919921875, 134476.046875, -187500.015625, -143874.515625, -187500.015625, -187500.015625, -0.12400000542402267, -0.64000004529953, 0.7680000066757202, 192.0, 0.0, 0.0, 0.0, 0.0, 0.0, 0.0, 0.0, 0.0, 0.0, 1.6137596851606884E9, 2021-02-19 16:34:45.160
27.0, -9301.052734375, 18052.630859375, -13178.431640625, 134270.484375, -187500.015625, -142589.3125, -187500.015625, -187500.015625, -0.12400000542402267, -0.6420000195503235, 0.7680000066757202, 192.0, 252.0, 32.0, 235.0, 240.0, 24.0, 0.0, 0.0, 0.0, 0.0, 1.6137596851646042E9, 2021-02-19 16:34:45.164
28.0, -9273.8720703125, 18087.74609375, -13149.798828125, 134291.796875, -187500.015625, -142036.703125, -187500.015625, -187500.015625, -0.12400000542402267, -0.6420000195503235, 0.7680000066757202, 192.0, 0.0, 0.0, 0.0, 0.0, 0.0, 0.0, 0.0, 0.0, 0.0, 1.6137596851677337E9, 2021-02-19 16:34:45.167
29.0, -9491.35546875, 18318.1484375, -12928.248046875, 134519.046875, -187500.015625, -143328.03125, -187500.015625, -187500.015625, -0.12400000542402267, -0.6420000195503235, 0.7680000066757202, 192.0, 0.0, 0.0, 0.0, 0.0, 0.0, 0.0, 0.0, 0.0, 0.0, 1.613759685170614E9, 2021-02-19 16:34:45.170
30.0, -9417.1025390625, 18296.4453125, -12946.107421875, 134512.140625, -187500.015625, -144123.5, -187500.015625, -187500.015625, -0.12400000542402267, -0.6420000195503235, 0.7680000066757202, 192.0, 0.0, 0.0, 0.0, 0.0, 0.0, 0.0, 0.0, 0.0, 0.0, 1.6137596851747231E9, 2021-02-19 16:34:45.174
31.0, -9218.2392578125, 18111.818359375, -13127.1123046875, 134334.671875, -187500.015625, -142977.53125, -187500.015625, -187500.015625, -0.12400000542402267, -0.6420000195503235, 0.7680000066757202, 192.0, 0.0, 0.0, 0.0, 0.0, 0.0, 0.0, 0.0, 0.0, 0.0, 1.6137596851777146E9, 2021-02-19 16:34:45.177
32.0, -9215.7578125, 18062.689453125, -13177.9619140625, 134276.9375, -187500.015625, -142025.859375, -187500.015625, -187500.015625, -0.12400000542402267, -0.6420000195503235, 0.7680000066757202, 192.0, 0.0, 0.0, 0.0, 0.0, 0.0, 0.0, 0.0, 0.0, 0.0, 1.6137596851806228E9, 2021-02-19 16:34:45.180
33.0, -9534.7841796875, 18234.619140625, -13010.2119140625, 134438.5, -187500.015625, -142993.109375, -187500.015625, -187500.015625, -0.12400000542402267, -0.6420000195503235, 0.7680000066757202, 192.0, 0.0, 0.0, 0.0, 0.0, 0.0, 0.0, 0.0, 0.0, 0.0, 1.6137596851836717E9, 2021-02-19 16:34:45.183
34.0, -9550.765625, 18343.80859375, -12898.990234375, 134558.015625, -187500.015625, -144103.28125, -187500.015625, -187500.015625, -0.12400000542402267, -0.6420000195503235, 0.7680000066757202, 192.0, 0.0, 0.0, 0.0, 0.0, 0.0, 0.0, 0.0, 0.0, 0.0, 1.6137596851878293E9, 2021-02-19 16:34:45.187
35.0, -9258.13671875, 18216.0234375, -13019.2421875, 134442.40625, -187500.015625, -143459.765625, -187500.015625, -187500.015625, -0.12400000542402267, -0.6420000195503235, 0.7680000066757202, 192.0, 0.0, 0.0, 0.0, 0.0, 0.0, 0.0, 0.0, 0.0, 0.0, 1.6137596851907346E9, 2021-02-19 16:34:45.190
36.0, -9129.1669921875, 18120.24609375, -13112.2255859375, 134340.21875, -187500.015625, -142512.421875, -187500.015625, -187500.015625, -0.12400000542402267, -0.6420000195503235, 0.7680000066757202, 192.0, 0.0, 0.0, 0.0, 0.0, 0.0, 0.0, 0.0, 0.0, 0.0, 1.613759685193833E9, 2021-02-19 16:34:45.193
37.0, -9472.9814453125, 18305.5859375, -12932.96484375, 134511.5625, -187500.015625, -143213.359375, -187500.015625, -187500.015625, -0.1300000101327896, -0.6320000290870667, 0.7580000162124634, 192.0, 251.0, 240.0, 236.0, 64.0, 23.0, 176.0, 0.0, 0.0, 0.0, 1.6137596851966476E9, 2021-02-19 16:34:45.196
38.0, -9564.0654296875, 18437.57421875, -12800.2177734375, 134655.0625, -187500.015625, -144559.703125, -187500.015625, -187500.015625, -0.1300000101327896, -0.6320000290870667, 0.7580000162124634, 192.0, 0.0, 0.0, 0.0, 0.0, 0.0, 0.0, 0.0, 0.0, 0.0, 1.6137596852007327E9, 2021-02-19 16:34:45.200
39.0, -9304.4052734375, 18251.3828125, -12979.5908203125, 134481.4375, -187500.015625, -144110.984375, -187500.015625, -187500.015625, -0.1300000101327896, -0.6320000290870667, 0.7580000162124634, 192.0, 0.0, 0.0, 0.0, 0.0, 0.0, 0.0, 0.0, 0.0, 0.0, 1.6137596852127547E9, 2021-02-19 16:34:45.212
40.0, -9116.3154296875, 18162.646484375, -13066.9189453125, 134390.078125, -187500.015625, -142894.34375, -187500.015625, -187500.015625, -0.1300000101327896, -0.6320000290870667, 0.7580000162124634, 192.0, 0.0, 0.0, 0.0, 0.0, 0.0, 0.0, 0.0, 0.0, 0.0, 1.6137596852167513E9, 2021-02-19 16:34:45.216
41.0, -9313.994140625, 18259.20703125, -12975.9697265625, 134475.984375, -187500.015625, -143364.984375, -187500.015625, -187500.015625, -0.1300000101327896, -0.6320000290870667, 0.7580000162124634, 192.0, 0.0, 0.0, 0.0, 0.0, 0.0, 0.0, 0.0, 0.0, 0.0, 1.613759685219796E9, 2021-02-19 16:34:45.219
42.0, -9513.2822265625, 18365.109375, -12870.849609375, 134587.515625, -187500.015625, -144690.125, -187500.015625, -187500.015625, -0.1300000101327896, -0.6320000290870667, 0.7580000162124634, 192.0, 0.0, 0.0, 0.0, 0.0, 0.0, 0.0, 0.0, 0.0, 0.0, 1.6137596852237449E9, 2021-02-19 16:34:45.223
43.0, -9346.7841796875, 18280.41796875, -12950.421875, 134516.296875, -187500.015625, -144510.90625, -187500.015625, -187500.015625, -0.1300000101327896, -0.6320000290870667, 0.7580000162124634, 192.0, 0.0, 0.0, 0.0, 0.0, 0.0, 0.0, 0.0, 0.0, 0.0, 1.613759685261779E9, 2021-02-19 16:34:45.261
44.0, -9147.6298828125, 18086.6953125, -13141.283203125, 134324.53125, -187500.015625, -143271.59375, -187500.015625, -187500.015625, -0.1300000101327896, -0.6320000290870667, 0.7580000162124634, 192.0, 0.0, 0.0, 0.0, 0.0, 0.0, 0.0, 0.0, 0.0, 0.0, 1.613759685264768E9, 2021-02-19 16:34:45.264
45.0, -9374.455078125, 18154.064453125, -13078.02734375, 134375.625, -187500.015625, -143310.390625, -187500.015625, -187500.015625, -0.1300000101327896, -0.6320000290870667, 0.7580000162124634, 192.0, 0.0, 0.0, 0.0, 0.0, 0.0, 0.0, 0.0, 0.0, 0.0, 1.613759685333017E9, 2021-02-19 16:34:45.333
46.0, -9642.654296875, 18372.57421875, -12863.919921875, 134596.078125, -187500.015625, -144939.40625, -187500.015625, -187500.015625, -0.1300000101327896, -0.6320000290870667, 0.7580000162124634, 192.0, 0.0, 0.0, 0.0, 0.0, 0.0, 0.0, 0.0, 0.0, 0.0, 1.6137596853368475E9, 2021-02-19 16:34:45.336
47.0, -9496.0712890625, 18339.181640625, -12892.6201171875, 134577.59375, -187500.015625, -145198.578125, -187500.015625, -187500.015625, -0.12400000542402267, -0.6320000290870667, 0.7580000162124634, 192.0, 252.0, 32.0, 236.0, 64.0, 23.0, 176.0, 0.0, 0.0, 0.0, 1.6137596853399537E9, 2021-02-19 16:34:45.339
48.0, -9270.005859375, 18127.2421875, -13102.1455078125, 134369.15625, -187500.015625, -143854.734375, -187500.015625, -187500.015625, -0.12400000542402267, -0.6320000290870667, 0.7580000162124634, 192.0, 0.0, 0.0, 0.0, 0.0, 0.0, 0.0, 0.0, 0.0, 0.0, 1.6137596853430047E9, 2021-02-19 16:34:45.343
49.0, -9347.6552734375, 18173.890625, -13062.2919921875, 134399.71875, -187500.015625, -143600.546875, -187500.015625, -187500.015625, -0.12400000542402267, -0.6320000290870667, 0.7580000162124634, 192.0, 0.0, 0.0, 0.0, 0.0, 0.0, 0.0, 0.0, 0.0, 0.0, 1.6137596853468547E9, 2021-02-19 16:34:45.346
50.0, -9607.3828125, 18350.84765625, -12888.7080078125, 134572.046875, -187500.015625, -144966.1875, -187500.015625, -187500.015625, -0.12400000542402267, -0.6320000290870667, 0.7580000162124634, 192.0, 0.0, 0.0, 0.0, 0.0, 0.0, 0.0, 0.0, 0.0, 0.0, 1.613759685349928E9, 2021-02-19 16:34:45.349
51.0, -9528.7275390625, 18331.42578125, -12906.634765625, 134565.5625, -187500.015625, -145475.59375, -187500.015625, -187500.015625, -0.12400000542402267, -0.6320000290870667, 0.7580000162124634, 192.0, 0.0, 0.0, 0.0, 0.0, 0.0, 0.0, 0.0, 0.0, 0.0, 1.613759685354025E9, 2021-02-19 16:34:45.354
52.0, -9285.8310546875, 18123.77734375, -13107.978515625, 134363.65625, -187500.015625, -144210.234375, -187500.015625, -187500.015625, -0.12400000542402267, -0.6320000290870667, 0.7580000162124634, 192.0, 0.0, 0.0, 0.0, 0.0, 0.0, 0.0, 0.0, 0.0, 0.0, 1.6137596853669083E9, 2021-02-19 16:34:45.366
53.0, -9323.470703125, 18118.927734375, -13115.154296875, 134347.125, -187500.015625, -143498.28125, -187500.015625, -187500.015625, -0.12400000542402267, -0.6320000290870667, 0.7580000162124634, 192.0, 0.0, 0.0, 0.0, 0.0, 0.0, 0.0, 0.0, 0.0, 0.0, 1.613759685371935E9, 2021-02-19 16:34:45.371
54.0, -9645.7607421875, 18329.859375, -12909.3388671875, 134554.03125, -187500.015625, -144665.875, -187500.015625, -187500.015625, -0.12400000542402267, -0.6320000290870667, 0.7580000162124634, 192.0, 0.0, 0.0, 0.0, 0.0, 0.0, 0.0, 0.0, 0.0, 0.0, 1.6137596853760688E9, 2021-02-19 16:34:45.376
55.0, -9657.2724609375, 18352.927734375, -12882.62890625, 134591.09375, -187500.015625, -145464.671875, -187500.015625, -187500.015625, -0.12400000542402267, -0.6320000290870667, 0.7580000162124634, 192.0, 0.0, 0.0, 0.0, 0.0, 0.0, 0.0, 0.0, 0.0, 0.0, 1.6137596853808956E9, 2021-02-19 16:34:45.380
56.0, -9458.453125, 18154.869140625, -13076.2392578125, 134401.8125, -187500.015625, -144449.625, -187500.015625, -187500.015625, -0.12400000542402267, -0.6320000290870667, 0.7580000162124634, 192.0, 0.0, 0.0, 0.0, 0.0, 0.0, 0.0, 0.0, 0.0, 0.0, 1.6137596853840203E9, 2021-02-19 16:34:45.384
57.0, -9430.8037109375, 18131.66796875, -13099.216796875, 134370.140625, -187500.015625, -143649.515625, -187500.015625, -187500.015625, -0.13199999928474426, -0.6360000371932983, 0.7560000419616699, 192.0, 251.0, 224.0, 236.0, 32.0, 23.0, 160.0, 0.0, 0.0, 0.0, 1.6137596853869748E9, 2021-02-19 16:34:45.386
58.0, -9740.7783203125, 18287.32421875, -12947.4482421875, 134516.96875, -187500.015625, -144500.09375, -187500.015625, -187500.015625, -0.13199999928474426, -0.6360000371932983, 0.7560000419616699, 192.0, 0.0, 0.0, 0.0, 0.0, 0.0, 0.0, 0.0, 0.0, 0.0, 1.613759685395897E9, 2021-02-19 16:34:45.395
59.0, -9812.7509765625, 18345.73046875, -12888.484375, 134585.1875, -187500.015625, -145538.90625, -187500.015625, -187500.015625, -0.13199999928474426, -0.6360000371932983, 0.7560000419616699, 192.0, 0.0, 0.0, 0.0, 0.0, 0.0, 0.0, 0.0, 0.0, 0.0, 1.613759685398965E9, 2021-02-19 16:34:45.398
60.0, -9576.0908203125, 18200.0859375, -13028.9208984375, 134450.296875, -187500.015625, -144770.671875, -187500.015625, -187500.015625, -0.13199999928474426, -0.6360000371932983, 0.7560000419616699, 192.0, 0.0, 0.0, 0.0, 0.0, 0.0, 0.0, 0.0, 0.0, 0.0, 1.6137596854482796E9, 2021-02-19 16:34:45.448
61.0, -9450.9658203125, 18073.330078125, -13154.783203125, 134317.640625, -187500.015625, -143545.671875, -187500.015625, -187500.015625, -0.13199999928474426, -0.6360000371932983, 0.7560000419616699, 192.0, 0.0, 0.0, 0.0, 0.0, 0.0, 0.0, 0.0, 0.0, 0.0, 1.6137596854520023E9, 2021-02-19 16:34:45.452
62.0, -9722.025390625, 18243.560546875, -12991.861328125, 134474.921875, -187500.015625, -144134.453125, -187500.015625, -187500.015625, -0.13199999928474426, -0.6360000371932983, 0.7560000419616699, 192.0, 0.0, 0.0, 0.0, 0.0, 0.0, 0.0, 0.0, 0.0, 0.0, 1.6137596854629853E9, 2021-02-19 16:34:45.462
63.0, -9839.3271484375, 18345.931640625, -12891.703125, 134585.390625, -187500.015625, -145340.21875, -187500.015625, -187500.015625, -0.13199999928474426, -0.6360000371932983, 0.7560000419616699, 192.0, 0.0, 0.0, 0.0, 0.0, 0.0, 0.0, 0.0, 0.0, 0.0, 1.6137596854670348E9, 2021-02-19 16:34:45.467
64.0, -9628.169921875, 18222.19140625, -13009.474609375, 134471.984375, -187500.015625, -144781.046875, -187500.015625, -187500.015625, -0.13199999928474426, -0.6360000371932983, 0.7560000419616699, 192.0, 0.0, 0.0, 0.0, 0.0, 0.0, 0.0, 0.0, 0.0, 0.0, 1.6137596854701617E9, 2021-02-19 16:34:45.470
65.0, -9434.693359375, 18089.35546875, -13139.583984375, 134335.40625, -187500.015625, -143494.546875, -187500.015625, -187500.015625, -0.13199999928474426, -0.6360000371932983, 0.7560000419616699, 192.0, 0.0, 0.0, 0.0, 0.0, 0.0, 0.0, 0.0, 0.0, 0.0, 1.6137596854741237E9, 2021-02-19 16:34:45.474
66.0, -9641.9609375, 18233.435546875, -13004.6025390625, 134463.796875, -187500.015625, -143767.328125, -187500.015625, -187500.015625, -0.13199999928474426, -0.6360000371932983, 0.7560000419616699, 192.0, 0.0, 0.0, 0.0, 0.0, 0.0, 0.0, 0.0, 0.0, 0.0, 1.6137596854800336E9, 2021-02-19 16:34:45.480
76.0, -9740.912109375, 18335.11328125, -12896.6435546875, 134586.953125, -187500.015625, -145429.1875, -187500.015625, -187500.015625, -0.13199999928474426, -0.6360000371932983, 0.7560000419616699, 192.0, 0.0, 0.0, 0.0, 0.0, 0.0, 0.0, 0.0, 0.0, 0.0, 1.6137596854911194E9, 2021-02-19 16:34:45.491
68.0, -9625.0634765625, 18298.12109375, -12939.8046875, 134552.21875, -187500.015625, -145331.078125, -187500.015625, -187500.015625, -0.13199999928474426, -0.6360000371932983, 0.7560000419616699, 192.0, 0.0, 0.0, 0.0, 0.0, 0.0, 0.0, 0.0, 0.0, 0.0, 1.6137596854940257E9, 2021-02-19 16:34:45.494
74.0, -9522.22265625, 18130.21484375, -13100.7373046875, 134373.96875, -187500.015625, -143576.515625, -187500.015625, -187500.015625, -0.13199999928474426, -0.6360000371932983, 0.7560000419616699, 192.0, 0.0, 0.0, 0.0, 0.0, 0.0, 0.0, 0.0, 0.0, 0.0, 1.6137596855000515E9, 2021-02-19 16:34:45.500
70.0, -9563.3271484375, 18175.96875, -13057.4638671875, 134416.140625, -187500.015625, -143816.640625, -187500.015625, -187500.015625, -0.13199999928474426, -0.6360000371932983, 0.7560000419616699, 192.0, 0.0, 0.0, 0.0, 0.0, 0.0, 0.0, 0.0, 0.0, 0.0, 1.613759685503124E9, 2021-02-19 16:34:45.503
71.0, -9815.8125, 18370.763671875, -12864.7919921875, 134611.359375, -187500.015625, -145209.46875, -187500.015625, -187500.015625, -0.13199999928474426, -0.6360000371932983, 0.7560000419616699, 192.0, 0.0, 0.0, 0.0, 0.0, 0.0, 0.0, 0.0, 0.0, 0.0, 1.613759685507036E9, 2021-02-19 16:34:45.507
72.0, -9684.0712890625, 18306.48046875, -12923.64453125, 134560.765625, -187500.015625, -145465.296875, -187500.015625, -187500.015625, -0.13199999928474426, -0.6360000371932983, 0.7560000419616699, 192.0, 0.0, 0.0, 0.0, 0.0, 0.0, 0.0, 0.0, 0.0, 0.0, 1.613759685510036E9, 2021-02-19 16:34:45.510
77.0, -9480.89453125, 18165.10546875, -13063.2978515625, 134427.34375, -187500.015625, -144254.953125, -187500.015625, -187500.015625, -0.12400000542402267, -0.6380000114440918, 0.7620000243186951, 192.0, 252.0, 32.0, 236.0, 16.0, 23.0, 208.0, 0.0, 0.0, 0.0, 1.6137596855252757E9, 2021-02-19 16:34:45.525
105.0, -9341.4638671875, 18329.681640625, -12887.5908203125, 134593.4375, -187500.015625, -148735.96875, -187500.015625, -187500.015625, -0.12400000542402267, -0.6380000114440918, 0.7620000243186951, 192.0, 0.0, 0.0, 0.0, 0.0, 0.0, 0.0, 0.0, 0.0, 0.0, 1.6137596855280747E9, 2021-02-19 16:34:45.528
79.0, -9777.0771484375, 18275.27734375, -12963.83203125, 134520.59375, -187500.015625, -144795.75, -187500.015625, -187500.015625, -0.12400000542402267, -0.6380000114440918, 0.7620000243186951, 192.0, 0.0, 0.0, 0.0, 0.0, 0.0, 0.0, 0.0, 0.0, 0.0, 1.6137596855330544E9, 2021-02-19 16:34:45.533
80.0, -9793.4384765625, 18277.109375, -12962.0888671875, 134533.046875, -187500.015625, -145654.15625, -187500.015625, -187500.015625, -0.12400000542402267, -0.6380000114440918, 0.7620000243186951, 192.0, 0.0, 0.0, 0.0, 0.0, 0.0, 0.0, 0.0, 0.0, 0.0, 1.6137596855370705E9, 2021-02-19 16:34:45.537
103.0, -8977.0634765625, 18111.505859375, -13099.6640625, 134371.90625, -187500.015625, -146303.265625, -187500.015625, -187500.015625, -0.12400000542402267, -0.6380000114440918, 0.7620000243186951, 192.0, 0.0, 0.0, 0.0, 0.0, 0.0, 0.0, 0.0, 0.0, 0.0, 1.613759685540073E9, 2021-02-19 16:34:45.540
101.0, -9244.5693359375, 18346.69140625, -12875.69921875, 134616.328125, -187500.015625, -147668.046875, -187500.015625, -187500.015625, -0.12400000542402267, -0.6380000114440918, 0.7620000243186951, 192.0, 0.0, 0.0, 0.0, 0.0, 0.0, 0.0, 0.0, 0.0, 0.0, 1.613759685543262E9, 2021-02-19 16:34:45.543
83.0, -9764.5830078125, 18220.939453125, -13020.494140625, 134463.078125, -187500.015625, -144444.359375, -187500.015625, -187500.015625, -0.12400000542402267, -0.6380000114440918, 0.7620000243186951, 192.0, 0.0, 0.0, 0.0, 0.0, 0.0, 0.0, 0.0, 0.0, 0.0, 1.6137596855460637E9, 2021-02-19 16:34:45.546
86.0, -9488.248046875, 18002.408203125, -13228.2314453125, 134263.21875, -187500.015625, -143499.046875, -187500.015625, -187500.015625, -0.12400000542402267, -0.6340000033378601, 0.7640000581741333, 192.0, 252.0, 32.0, 236.0, 48.0, 23.0, 224.0, 0.0, 0.0, 0.0, 1.6137596855501747E9, 2021-02-19 16:34:45.550
99.0, -9123.35546875, 18146.396484375, -13077.6923828125, 134403.921875, -187500.015625, -145069.90625, -187500.015625, -187500.015625, -0.12400000542402267, -0.6340000033378601, 0.7640000581741333, 192.0, 0.0, 0.0, 0.0, 0.0, 0.0, 0.0, 0.0, 0.0, 0.0, 1.6137596855534017E9, 2021-02-19 16:34:45.553
88.0, -9913.892578125, 18393.205078125, -12846.240234375, 134647.375, -187500.015625, -145453.609375, -187500.015625, -187500.015625, -0.12400000542402267, -0.6340000033378601, 0.7640000581741333, 192.0, 0.0, 0.0, 0.0, 0.0, 0.0, 0.0, 0.0, 0.0, 0.0, 1.613759685556092E9, 2021-02-19 16:34:45.556
89.0, -9660.46875, 18265.822265625, -12964.8603515625, 134532.4375, -187500.015625, -145333.140625, -187500.015625, -187500.015625, -0.12400000542402267, -0.6340000033378601, 0.7640000581741333, 192.0, 0.0, 0.0, 0.0, 0.0, 0.0, 0.0, 0.0, 0.0, 0.0, 1.6137596855602584E9, 2021-02-19 16:34:45.560
97.0, -9385.2734375, 18324.83203125, -12901.8515625, 134589.4375, -187500.015625, -146289.296875, -187500.015625, -187500.015625, -0.12400000542402267, -0.6340000033378601, 0.7640000581741333, 192.0, 0.0, 0.0, 0.0, 0.0, 0.0, 0.0, 0.0, 0.0, 0.0, 1.61375968558515E9, 2021-02-19 16:34:45.585
109.0, -9806.134765625, 18316.025390625, -12896.7099609375, 134579.171875, -187500.015625, -148641.078125, -187500.015625, -187500.015625, -0.12400000542402267, -0.6340000033378601, 0.7640000581741333, 192.0, 0.0, 0.0, 0.0, 0.0, 0.0, 0.0, 0.0, 0.0, 0.0, 1.6137596855881877E9, 2021-02-19 16:34:45.588
92.0, -9807.9228515625, 18307.732421875, -12926.52734375, 134558.640625, -187500.015625, -145595.25, -187500.015625, -187500.015625, -0.12400000542402267, -0.6340000033378601, 0.7640000581741333, 192.0, 0.0, 0.0, 0.0, 0.0, 0.0, 0.0, 0.0, 0.0, 0.0, 1.6137596855911689E9, 2021-02-19 16:34:45.591
93.0, -9630.740234375, 18240.54296875, -12987.369140625, 134504.609375, -187500.015625, -145635.109375, -187500.015625, -187500.015625, -0.12400000542402267, -0.6340000033378601, 0.7640000581741333, 192.0, 0.0, 0.0, 0.0, 0.0, 0.0, 0.0, 0.0, 0.0, 0.0, 1.6137596855954995E9, 2021-02-19 16:34:45.595
106.0, -9171.61328125, 18148.4765625, -13063.767578125, 134423.078125, -187500.015625, -147846.078125, -187500.015625, -187500.015625, -0.12400000542402267, -0.6380000114440918, 0.7600000500679016, 192.0, 252.0, 32.0, 236.0, 16.0, 23.0, 192.0, 0.0, 0.0, 0.0, 1.6137596855981667E9, 2021-02-19 16:34:45.598
107.0, -9227.4033203125, 18046.037109375, -13163.880859375, 134312.25, -187500.015625, -146683.859375, -187500.015625, -187500.015625, -0.12400000542402267, -0.6380000114440918, 0.7600000500679016, 192.0, 0.0, 0.0, 0.0, 0.0, 0.0, 0.0, 0.0, 0.0, 0.0, 1.6137596856191864E9, 2021-02-19 16:34:45.619
110.0, -9590.619140625, 18176.951171875, -13032.0947265625, 134451.015625, -187500.015625, -148237.640625, -187500.015625, -187500.015625, -0.12400000542402267, -0.6380000114440918, 0.7600000500679016, 192.0, 0.0, 0.0, 0.0, 0.0, 0.0, 0.0, 0.0, 0.0, 0.0, 1.6137596856241796E9, 2021-02-19 16:34:45.624
116.0, -9751.7529296875, 18126.1015625, -13095.931640625, 134381.453125, -187500.015625, -146934.421875, -187500.015625, -187500.015625, -0.12400000542402267, -0.6380000114440918, 0.7560000419616699, 192.0, 252.0, 32.0, 236.0, 16.0, 23.0, 160.0, 0.0, 0.0, 0.0, 1.6137596856272917E9, 2021-02-19 16:34:45.627
112.0, -9731.3681640625, 18220.404296875, -12995.37109375, 134477.75, -187500.015625, -147333.078125, -187500.015625, -187500.015625, -0.12400000542402267, -0.6380000114440918, 0.7560000419616699, 192.0, 0.0, 0.0, 0.0, 0.0, 0.0, 0.0, 0.0, 0.0, 0.0, 1.6137596856342363E9, 2021-02-19 16:34:45.634
113.0, -9913.646484375, 18316.60546875, -12903.818359375, 134578.90625, -187500.015625, -148667.28125, -187500.015625, -187500.015625, -0.12400000542402267, -0.6380000114440918, 0.7560000419616699, 192.0, 0.0, 0.0, 0.0, 0.0, 0.0, 0.0, 0.0, 0.0, 0.0, 1.6137596856373055E9, 2021-02-19 16:34:45.637
114.0, -9743.416015625, 18192.822265625, -13023.4892578125, 134466.28125, -187500.015625, -148366.9375, -187500.015625, -187500.015625, -0.12400000542402267, -0.6380000114440918, 0.7560000419616699, 192.0, 0.0, 0.0, 0.0, 0.0, 0.0, 0.0, 0.0, 0.0, 0.0, 1.6137596856402168E9, 2021-02-19 16:34:45.640
117.0, -9976.56640625, 18326.88671875, -12898.9453125, 134584.90625, -187500.015625, -148231.75, -187500.015625, -187500.015625, -0.12400000542402267, -0.6380000114440918, 0.7560000419616699, 192.0, 0.0, 0.0, 0.0, 0.0, 0.0, 0.0, 0.0, 0.0, 0.0, 1.6137596856442864E9, 2021-02-19 16:34:45.644
118.0, -9800.2109375, 18258.24609375, -12962.46875, 134533.421875, -187500.015625, -148304.734375, -187500.015625, -187500.015625, -0.12400000542402267, -0.6380000114440918, 0.7560000419616699, 192.0, 0.0, 0.0, 0.0, 0.0, 0.0, 0.0, 0.0, 0.0, 0.0, 1.6137596856471996E9, 2021-02-19 16:34:45.647
119.0, -9561.94140625, 18071.474609375, -13146.580078125, 134348.796875, -187500.015625, -146881.71875, -187500.015625, -187500.015625, -0.12400000542402267, -0.6380000114440918, 0.7560000419616699, 192.0, 0.0, 0.0, 0.0, 0.0, 0.0, 0.0, 0.0, 0.0, 0.0, 1.6137596856512384E9, 2021-02-19 16:34:45.651
120.0, -9665.720703125, 18129.857421875, -13094.0986328125, 134388.546875, -187500.015625, -146645.515625, -187500.015625, -187500.015625, -0.12400000542402267, -0.6380000114440918, 0.7560000419616699, 192.0, 0.0, 0.0, 0.0, 0.0, 0.0, 0.0, 0.0, 0.0, 0.0, 1.6137596856544626E9, 2021-02-19 16:34:45.654
124.0, -9586.5732421875, 18028.380859375, -13193.02734375, 134303.109375, -187500.015625, -146504.34375, -187500.015625, -187500.015625, -0.12400000542402267, -0.6380000114440918, 0.7560000419616699, 192.0, 0.0, 0.0, 0.0, 0.0, 0.0, 0.0, 0.0, 0.0, 0.0, 1.6137596856572404E9, 2021-02-19 16:34:45.657
122.0, -9796.7470703125, 18281.357421875, -12942.822265625, 134557.1875, -187500.015625, -148495.4375, -187500.015625, -187500.015625, -0.12400000542402267, -0.6380000114440918, 0.7560000419616699, 192.0, 0.0, 0.0, 0.0, 0.0, 0.0, 0.0, 0.0, 0.0, 0.0, 1.613759685661301E9, 2021-02-19 16:34:45.661
125.0, -9903.2529296875, 18218.525390625, -13005.6083984375, 134481.59375, -187500.015625, -147654.71875, -187500.015625, -187500.015625, -0.12400000542402267, -0.6380000114440918, 0.7560000419616699, 192.0, 0.0, 0.0, 0.0, 0.0, 0.0, 0.0, 0.0, 0.0, 0.0, 1.6137596856642432E9, 2021-02-19 16:34:45.664
126.0, -9853.810546875, 18292.80078125, -12929.5673828125, 134566.6875, -187500.015625, -148356.96875, -187500.015625, -187500.015625, -0.12600000202655792, -0.6380000114440918, 0.7580000162124634, 192.0, 252.0, 16.0, 236.0, 16.0, 23.0, 176.0, 0.0, 0.0, 0.0, 1.61375968566725E9, 2021-02-19 16:34:45.667
127.0, -9573.609375, 18131.466796875, -13090.65625, 134411.96875, -187500.015625, -147185.421875, -187500.015625, -187500.015625, -0.12600000202655792, -0.6380000114440918, 0.7580000162124634, 192.0, 0.0, 0.0, 0.0, 0.0, 0.0, 0.0, 0.0, 0.0, 0.0, 1.6137596856713047E9, 2021-02-19 16:34:45.671
128.0, -9513.4384765625, 18046.10546875, -13178.0966796875, 134316.046875, -187500.015625, -146167.625, -187500.015625, -187500.015625, -0.12600000202655792, -0.6380000114440918, 0.7580000162124634, 192.0, 0.0, 0.0, 0.0, 0.0, 0.0, 0.0, 0.0, 0.0, 0.0, 1.613759685674335E9, 2021-02-19 16:34:45.674
129.0, -9826.162109375, 18204.466796875, -13025.43359375, 134462.4375, -187500.015625, -147135.9375, -187500.015625, -187500.015625, -0.12600000202655792, -0.6380000114440918, 0.7580000162124634, 192.0, 0.0, 0.0, 0.0, 0.0, 0.0, 0.0, 0.0, 0.0, 0.0, 1.6137596856773696E9, 2021-02-19 16:34:45.677
130.0, -9872.0498046875, 18341.1484375, -12886.2939453125, 134608.96875, -187500.015625, -148163.046875, -187500.015625, -187500.015625, -0.12600000202655792, -0.6380000114440918, 0.7580000162124634, 192.0, 0.0, 0.0, 0.0, 0.0, 0.0, 0.0, 0.0, 0.0, 0.0, 1.613759685683317E9, 2021-02-19 16:34:45.683
131.0, -9618.8271484375, 18178.740234375, -13042.935546875, 134458.203125, -187500.015625, -147410.125, -187500.015625, -187500.015625, -0.12600000202655792, -0.6380000114440918, 0.7580000162124634, 192.0, 0.0, 0.0, 0.0, 0.0, 0.0, 0.0, 0.0, 0.0, 0.0, 1.6137596856862803E9, 2021-02-19 16:34:45.686
132.0, -9501.7041015625, 18026.009765625, -13194.435546875, 134297.328125, -187500.015625, -146339.484375, -187500.015625, -187500.015625, -0.12600000202655792, -0.6380000114440918, 0.7580000162124634, 192.0, 0.0, 0.0, 0.0, 0.0, 0.0, 0.0, 0.0, 0.0, 0.0, 1.613759685690317E9, 2021-02-19 16:34:45.690
139.0, -9715.8779296875, 18259.474609375, -12967.7666015625, 134539.171875, -187500.015625, -147708.09375, -187500.015625, -187500.015625, -0.12600000202655792, -0.6380000114440918, 0.7580000162124634, 192.0, 0.0, 0.0, 0.0, 0.0, 0.0, 0.0, 0.0, 0.0, 0.0, 1.6137596856933708E9, 2021-02-19 16:34:45.693
134.0, -9919.681640625, 18332.408203125, -12892.6201171875, 134596.484375, -187500.015625, -148167.296875, -187500.015625, -187500.015625, -0.12600000202655792, -0.6380000114440918, 0.7580000162124634, 192.0, 0.0, 0.0, 0.0, 0.0, 0.0, 0.0, 0.0, 0.0, 0.0, 1.6137596856962905E9, 2021-02-19 16:34:45.696
148.0, -9553.73828125, 18125.833984375, -13098.2783203125, 134414.515625, -187500.015625, -146939.140625, -187500.015625, -187500.015625, -0.12600000202655792, -0.6380000114440918, 0.7580000162124634, 192.0, 0.0, 0.0, 0.0, 0.0, 0.0, 0.0, 0.0, 0.0, 0.0, 1.6137596856992772E9, 2021-02-19 16:34:45.699
140.0, -9492.7626953125, 18060.5, -13163.3662109375, 134341.734375, -187500.015625, -146361.546875, -187500.015625, -187500.015625, -0.12600000202655792, -0.6380000114440918, 0.7580000162124634, 192.0, 0.0, 0.0, 0.0, 0.0, 0.0, 0.0, 0.0, 0.0, 0.0, 1.6137596857033992E9, 2021-02-19 16:34:45.703
146.0, -9911.12109375, 18326.619140625, -12910.2333984375, 134593.90625, -187500.015625, -147701.03125, -187500.015625, -187500.015625, -0.12000000476837158, -0.628000020980835, 0.7740000486373901, 192.0, 252.0, 64.0, 236.0, 96.0, 24.0, 48.0, 0.0, 0.0, 0.0, 1.613759685706322E9, 2021-02-19 16:34:45.706
142.0, -9905.9794921875, 18361.779296875, -12873.46484375, 134627.21875, -187500.015625, -147949.390625, -187500.015625, -187500.015625, -0.12000000476837158, -0.628000020980835, 0.7740000486373901, 192.0, 0.0, 0.0, 0.0, 0.0, 0.0, 0.0, 0.0, 0.0, 0.0, 1.6137596857094023E9, 2021-02-19 16:34:45.709
143.0, -9746.388671875, 18244.65625, -12986.9443359375, 134525.109375, -187500.015625, -148129.96875, -187500.015625, -187500.015625, -0.12000000476837158, -0.628000020980835, 0.7740000486373901, 192.0, 0.0, 0.0, 0.0, 0.0, 0.0, 0.0, 0.0, 0.0, 0.0, 1.6137596857124429E9, 2021-02-19 16:34:45.712
144.0, -9515.181640625, 18065.328125, -13163.7021484375, 134350.4375, -187500.015625, -146757.609375, -187500.015625, -187500.015625, -0.12000000476837158, -0.628000020980835, 0.7740000486373901, 192.0, 0.0, 0.0, 0.0, 0.0, 0.0, 0.0, 0.0, 0.0, 0.0, 1.6137596857162929E9, 2021-02-19 16:34:45.716
149.0, -9568.6025390625, 18110.1875, -13115.623046875, 134389.09375, -187500.015625, -146165.734375, -187500.015625, -187500.015625, -0.12000000476837158, -0.628000020980835, 0.7740000486373901, 192.0, 0.0, 0.0, 0.0, 0.0, 0.0, 0.0, 0.0, 0.0, 0.0, 1.6137596857193556E9, 2021-02-19 16:34:45.719
150.0, -9873.771484375, 18297.427734375, -12934.3505859375, 134568.734375, -187500.015625, -147276.671875, -187500.015625, -187500.015625, -0.12000000476837158, -0.628000020980835, 0.7740000486373901, 192.0, 0.0, 0.0, 0.0, 0.0, 0.0, 0.0, 0.0, 0.0, 0.0, 1.6137596857223856E9, 2021-02-19 16:34:45.722
151.0, -9816.2373046875, 18362.427734375, -12867.9208984375, 134647.859375, -187500.015625, -148149.609375, -187500.015625, -187500.015625, -0.12000000476837158, -0.628000020980835, 0.7740000486373901, 192.0, 0.0, 0.0, 0.0, 0.0, 0.0, 0.0, 0.0, 0.0, 0.0, 1.6137596857253227E9, 2021-02-19 16:34:45.725
152.0, -9552.4873046875, 18171.54296875, -13054.625, 134463.890625, -187500.015625, -147136.25, -187500.015625, -187500.015625, -0.12000000476837158, -0.628000020980835, 0.7740000486373901, 192.0, 0.0, 0.0, 0.0, 0.0, 0.0, 0.0, 0.0, 0.0, 0.0, 1.6137596857294526E9, 2021-02-19 16:34:45.729
153.0, -9483.77734375, 18128.470703125, -13099.5966796875, 134411.203125, -187500.015625, -146300.359375, -187500.015625, -187500.015625, -0.12000000476837158, -0.628000020980835, 0.7740000486373901, 192.0, 0.0, 0.0, 0.0, 0.0, 0.0, 0.0, 0.0, 0.0, 0.0, 1.613759685732366E9, 2021-02-19 16:34:45.732
154.0, -9810.91796875, 18312.1796875, -12923.353515625, 134583.0625, -187500.015625, -147131.34375, -187500.015625, -187500.015625, -0.12000000476837158, -0.628000020980835, 0.7740000486373901, 192.0, 0.0, 0.0, 0.0, 0.0, 0.0, 0.0, 0.0, 0.0, 0.0, 1.613759685735504E9, 2021-02-19 16:34:45.735
155.0, -9896.9501953125, 18358.849609375, -12877.4208984375, 134639.5, -187500.015625, -148193.78125, -187500.015625, -187500.015625, -0.11800000816583633, -0.6260000467300415, 0.7720000147819519, 192.0, 252.0, 80.0, 236.0, 112.0, 24.0, 32.0, 0.0, 0.0, 0.0, 1.613759685738336E9, 2021-02-19 16:34:45.738
156.0, -9659.9990234375, 18189.3125, -13041.6162109375, 134479.515625, -187500.015625, -147399.640625, -187500.015625, -187500.015625, -0.11800000816583633, -0.6260000467300415, 0.7720000147819519, 192.0, 0.0, 0.0, 0.0, 0.0, 0.0, 0.0, 0.0, 0.0, 0.0, 1.6137596857534091E9, 2021-02-19 16:34:45.753
157.0, -9529.7333984375, 18064.568359375, -13163.2548828125, 134349.421875, -187500.015625, -146131.046875, -187500.015625, -187500.015625, -0.11800000816583633, -0.6260000467300415, 0.7720000147819519, 192.0, 0.0, 0.0, 0.0, 0.0, 0.0, 0.0, 0.0, 0.0, 0.0, 1.6137596857564323E9, 2021-02-19 16:34:45.756
158.0, -9796.5908203125, 18217.921875, -13015.2861328125, 134487.9375, -187500.015625, -146683.515625, -187500.015625, -187500.015625, -0.11800000816583633, -0.6260000467300415, 0.7720000147819519, 192.0, 0.0, 0.0, 0.0, 0.0, 0.0, 0.0, 0.0, 0.0, 0.0, 1.6137596857593741E9, 2021-02-19 16:34:45.759
159.0, -9926.6328125, 18357.576171875, -12876.236328125, 134636.53125, -187500.015625, -147844.203125, -187500.015625, -187500.015625, -0.11800000816583633, -0.6260000467300415, 0.7720000147819519, 192.0, 0.0, 0.0, 0.0, 0.0, 0.0, 0.0, 0.0, 0.0, 0.0, 1.6137596857635925E9, 2021-02-19 16:34:45.763
160.0, -9711.9892578125, 18213.98828125, -13009.0947265625, 134507.9375, -187500.015625, -147338.609375, -187500.015625, -187500.015625, -0.11800000816583633, -0.6260000467300415, 0.7720000147819519, 192.0, 0.0, 0.0, 0.0, 0.0, 0.0, 0.0, 0.0, 0.0, 0.0, 1.6137596857694476E9, 2021-02-19 16:34:45.769
161.0, -9531.744140625, 18047.6015625, -13170.8095703125, 134342.78125, -187500.015625, -145978.4375, -187500.015625, -187500.015625, -0.11800000816583633, -0.6260000467300415, 0.7720000147819519, 192.0, 0.0, 0.0, 0.0, 0.0, 0.0, 0.0, 0.0, 0.0, 0.0, 1.6137596857734437E9, 2021-02-19 16:34:45.773
162.0, -9777.1220703125, 18166.3125, -13059.9228515625, 134444.359375, -187500.015625, -146144.546875, -187500.015625, -187500.015625, -0.11800000816583633, -0.6260000467300415, 0.7720000147819519, 192.0, 0.0, 0.0, 0.0, 0.0, 0.0, 0.0, 0.0, 0.0, 0.0, 1.6137596857864475E9, 2021-02-19 16:34:45.786
163.0, -9978.3544921875, 18357.5546875, -12871.162109375, 134642.953125, -187500.015625, -147637.265625, -187500.015625, -187500.015625, -0.11800000816583633, -0.6260000467300415, 0.7720000147819519, 192.0, 0.0, 0.0, 0.0, 0.0, 0.0, 0.0, 0.0, 0.0, 0.0, 1.6137596858905256E9, 2021-02-19 16:34:45.890
164.0, -9773.2998046875, 18247.806640625, -12976.70703125, 134551.90625, -187500.015625, -147544.78125, -187500.015625, -187500.015625, -0.11800000816583633, -0.6260000467300415, 0.7720000147819519, 192.0, 0.0, 0.0, 0.0, 0.0, 0.0, 0.0, 0.0, 0.0, 0.0, 1.6137596858935294E9, 2021-02-19 16:34:45.893
165.0, -9546.072265625, 18072.078125, -13152.7275390625, 134375.53125, -187500.015625, -146018.21875, -187500.015625, -187500.015625, -0.12400000542402267, -0.6340000033378601, 0.7720000147819519, 192.0, 252.0, 32.0, 236.0, 48.0, 24.0, 32.0, 0.0, 0.0, 0.0, 1.6137596858966088E9, 2021-02-19 16:34:45.896
166.0, -9688.1171875, 18159.71875, -13073.490234375, 134446.25, -187500.015625, -145869.375, -187500.015625, -187500.015625, -0.12400000542402267, -0.6340000033378601, 0.7720000147819519, 192.0, 0.0, 0.0, 0.0, 0.0, 0.0, 0.0, 0.0, 0.0, 0.0, 1.6137596859005508E9, 2021-02-19 16:34:45.900
167.0, -9938.8818359375, 18333.279296875, -12905.3828125, 134619.515625, -187500.015625, -147165.09375, -187500.015625, -187500.015625, -0.12400000542402267, -0.6340000033378601, 0.7720000147819519, 192.0, 0.0, 0.0, 0.0, 0.0, 0.0, 0.0, 0.0, 0.0, 0.0, 1.613759685903794E9, 2021-02-19 16:34:45.903
215.0, -9563.55078125, 18087.701171875, -13151.7431640625, 134427.859375, -187500.015625, -147668.265625, -187500.015625, -187500.015625, -0.12400000542402267, -0.6340000033378601, 0.7720000147819519, 192.0, 0.0, 0.0, 0.0, 0.0, 0.0, 0.0, 0.0, 0.0, 0.0, 1.6137596859065175E9, 2021-02-19 16:34:45.906
213.0, -9954.7294921875, 18390.9921875, -12855.314453125, 134713.15625, -187500.015625, -148926.046875, -187500.015625, -187500.015625, -0.12400000542402267, -0.6340000033378601, 0.7720000147819519, 192.0, 0.0, 0.0, 0.0, 0.0, 0.0, 0.0, 0.0, 0.0, 0.0, 1.6137596859116185E9, 2021-02-19 16:34:45.911
170.0, -9622.3359375, 18114.634765625, -13121.76953125, 134403.71875, -187500.015625, -145348.0, -187500.015625, -187500.015625, -0.12400000542402267, -0.6340000033378601, 0.7720000147819519, 192.0, 0.0, 0.0, 0.0, 0.0, 0.0, 0.0, 0.0, 0.0, 0.0, 1.613759685951669E9, 2021-02-19 16:34:45.951
211.0, -9529.3310546875, 18147.939453125, -13087.7724609375, 134483.6875, -187500.015625, -147583.625, -187500.015625, -187500.015625, -0.12400000542402267, -0.6340000033378601, 0.7720000147819519, 192.0, 0.0, 0.0, 0.0, 0.0, 0.0, 0.0, 0.0, 0.0, 0.0, 1.613759685955584E9, 2021-02-19 16:34:45.955
209.0, -9945.7880859375, 18425.146484375, -12815.1708984375, 134746.96875, -187500.015625, -149188.859375, -187500.015625, -187500.015625, -0.12400000542402267, -0.6340000033378601, 0.7720000147819519, 192.0, 0.0, 0.0, 0.0, 0.0, 0.0, 0.0, 0.0, 0.0, 0.0, 1.613759685958603E9, 2021-02-19 16:34:45.958
173.0, -9601.0126953125, 18096.798828125, -13132.923828125, 134403.375, -187500.015625, -145841.078125, -187500.015625, -187500.015625, -0.12400000542402267, -0.6340000033378601, 0.7720000147819519, 192.0, 0.0, 0.0, 0.0, 0.0, 0.0, 0.0, 0.0, 0.0, 0.0, 1.613759685961583E9, 2021-02-19 16:34:45.961
174.0, -9590.3955078125, 18089.490234375, -13142.2890625, 134382.96875, -187500.015625, -145212.328125, -187500.015625, -187500.015625, -0.12400000542402267, -0.6340000033378601, 0.7720000147819519, 192.0, 0.0, 0.0, 0.0, 0.0, 0.0, 0.0, 0.0, 0.0, 0.0, 1.613759685965639E9, 2021-02-19 16:34:45.965
207.0, -9523.2060546875, 18126.056640625, -13108.783203125, 134454.28125, -187500.015625, -147419.515625, -187500.015625, -187500.015625, -0.12400000542402267, -0.6340000033378601, 0.7720000147819519, 192.0, 0.0, 0.0, 0.0, 0.0, 0.0, 0.0, 0.0, 0.0, 0.0, 1.6137596859686203E9, 2021-02-19 16:34:45.968
176.0, -9866.640625, 18369.958984375, -12863.80859375, 134668.78125, -187500.015625, -147066.140625, -187500.015625, -187500.015625, -0.12400000542402267, -0.6340000033378601, 0.7720000147819519, 192.0, 0.0, 0.0, 0.0, 0.0, 0.0, 0.0, 0.0, 0.0, 0.0, 1.6137596859717436E9, 2021-02-19 16:34:45.971
177.0, -9591.7138671875, 18166.021484375, -13063.72265625, 134477.015625, -187500.015625, -146086.921875, -187500.015625, -187500.015625, -0.12400000542402267, -0.6340000033378601, 0.7720000147819519, 192.0, 0.0, 0.0, 0.0, 0.0, 0.0, 0.0, 0.0, 0.0, 0.0, 1.6137596859757276E9, 2021-02-19 16:34:45.975
205.0, -9946.7939453125, 18419.8046875, -12824.4921875, 134738.390625, -187500.015625, -149138.546875, -187500.015625, -187500.015625, -0.12800000607967377, -0.6380000114440918, 0.7620000243186951, 192.0, 252.0, 0.0, 236.0, 16.0, 23.0, 208.0, 0.0, 0.0, 0.0, 1.6137596859786305E9, 2021-02-19 16:34:45.978
203.0, -9523.876953125, 18165.240234375, -13075.30078125, 134484.5, -187500.015625, -147141.65625, -187500.015625, -187500.015625, -0.12800000607967377, -0.6380000114440918, 0.7620000243186951, 192.0, 0.0, 0.0, 0.0, 0.0, 0.0, 0.0, 0.0, 0.0, 0.0, 1.613759685981631E9, 2021-02-19 16:34:45.981
180.0, -9869.345703125, 18363.365234375, -12880.572265625, 134668.5, -187500.015625, -146785.671875, -187500.015625, -187500.015625, -0.12800000607967377, -0.6380000114440918, 0.7620000243186951, 192.0, 0.0, 0.0, 0.0, 0.0, 0.0, 0.0, 0.0, 0.0, 0.0, 1.6137596859848049E9, 2021-02-19 16:34:45.984
181.0, -9590.5966796875, 18207.685546875, -13033.0556640625, 134524.640625, -187500.015625, -146028.5625, -187500.015625, -187500.015625, -0.12800000607967377, -0.6380000114440918, 0.7620000243186951, 192.0, 0.0, 0.0, 0.0, 0.0, 0.0, 0.0, 0.0, 0.0, 0.0, 1.6137596859886024E9, 2021-02-19 16:34:45.988
201.0, -9835.03515625, 18396.357421875, -12849.81640625, 134712.484375, -187500.015625, -149282.6875, -187500.015625, -187500.015625, -0.12800000607967377, -0.6380000114440918, 0.7620000243186951, 192.0, 0.0, 0.0, 0.0, 0.0, 0.0, 0.0, 0.0, 0.0, 0.0, 1.6137596859916384E9, 2021-02-19 16:34:45.991
183.0, -9430.3349609375, 18244.029296875, -13007.75390625, 134541.375, -187500.015625, -145604.3125, -187500.015625, -187500.015625, -0.12800000607967377, -0.6380000114440918, 0.7620000243186951, 192.0, 0.0, 0.0, 0.0, 0.0, 0.0, 0.0, 0.0, 0.0, 0.0, 1.6137596859947903E9, 2021-02-19 16:34:45.994
199.0, -9423.1376953125, 18200.353515625, -13042.734375, 134515.34375, -187500.015625, -147326.90625, -187500.015625, -187500.015625, -0.12800000607967377, -0.6380000114440918, 0.7620000243186951, 192.0, 0.0, 0.0, 0.0, 0.0, 0.0, 0.0, 0.0, 0.0, 0.0, 1.6137596859986322E9, 2021-02-19 16:34:45.998
217.0, -9934.92578125, 18429.19140625, -12820.1103515625, 134755.328125, -187500.015625, -148956.921875, -187500.015625, -187500.015625, -0.12800000607967377, -0.6380000114440918, 0.7620000243186951, 192.0, 0.0, 0.0, 0.0, 0.0, 0.0, 0.0, 0.0, 0.0, 0.0, 1.613759686001681E9, 2021-02-19 16:34:46.001
196.0, -9646.9677734375, 18415.580078125, -12836.5166015625, 134721.359375, -187500.015625, -148571.4375, -187500.015625, -187500.015625, -0.12800000607967377, -0.6380000114440918, 0.7620000243186951, 192.0, 0.0, 0.0, 0.0, 0.0, 0.0, 0.0, 0.0, 0.0, 0.0, 1.613759686004764E9, 2021-02-19 16:34:46.004
194.0, -9222.91015625, 18158.53515625, -13083.1904296875, 134483.5625, -187500.015625, -147475.75, -187500.015625, -187500.015625, -0.12800000607967377, -0.6380000114440918, 0.7620000243186951, 192.0, 0.0, 0.0, 0.0, 0.0, 0.0, 0.0, 0.0, 0.0, 0.0, 1.6137596860076487E9, 2021-02-19 16:34:46.007
192.0, -9446.62890625, 18439.80859375, -12806.7890625, 134741.671875, -187500.015625, -148258.125, -187500.015625, -187500.015625, -0.12800000607967377, -0.6380000114440918, 0.7620000243186951, 192.0, 0.0, 0.0, 0.0, 0.0, 0.0, 0.0, 0.0, 0.0, 0.0, 1.6137596860117047E9, 2021-02-19 16:34:46.011
230.0, -9917.37890625, 18392.2890625, -12854.3984375, 134730.203125, -187500.015625, -149346.578125, -187500.015625, -187500.015625, -0.12800000607967377, -0.6380000114440918, 0.7620000243186951, 192.0, 0.0, 0.0, 0.0, 0.0, 0.0, 0.0, 0.0, 0.0, 0.0, 1.613759686014793E9, 2021-02-19 16:34:46.014
190.0, -8887.4775390625, 18150.0859375, -13086.677734375, 134467.125, -187500.015625, -146968.953125, -187500.015625, -187500.015625, -0.12800000607967377, -0.6380000114440918, 0.7620000243186951, 192.0, 0.0, 0.0, 0.0, 0.0, 0.0, 0.0, 0.0, 0.0, 0.0, 1.613759686017793E9, 2021-02-19 16:34:46.017
218.0, -9811.431640625, 18378.630859375, -12866.22265625, 134718.1875, -187500.015625, -149364.953125, -187500.015625, -187500.015625, -0.12800000607967377, -0.6380000114440918, 0.7620000243186951, 192.0, 0.0, 0.0, 0.0, 0.0, 0.0, 0.0, 0.0, 0.0, 0.0, 1.6137596860218556E9, 2021-02-19 16:34:46.021
228.0, -9513.0361328125, 18092.529296875, -13146.3349609375, 134438.296875, -187500.015625, -147471.421875, -187500.015625, -187500.015625, -0.12800000607967377, -0.6380000114440918, 0.7620000243186951, 192.0, 0.0, 0.0, 0.0, 0.0, 0.0, 0.0, 0.0, 0.0, 0.0, 1.613759686024659E9, 2021-02-19 16:34:46.024
220.0, -9570.5029296875, 18156.90234375, -13084.77734375, 134489.90625, -187500.015625, -147464.9375, -187500.015625, -187500.015625, -0.12800000607967377, -0.6380000114440918, 0.7620000243186951, 192.0, 0.0, 0.0, 0.0, 0.0, 0.0, 0.0, 0.0, 0.0, 0.0, 1.6137596860287364E9, 2021-02-19 16:34:46.028
226.0, -9906.8740234375, 18382.07421875, -12859.181640625, 134723.796875, -187500.015625, -149268.875, -187500.015625, -187500.015625, -0.12800000607967377, -0.6380000114440918, 0.7620000243186951, 192.0, 0.0, 0.0, 0.0, 0.0, 0.0, 0.0, 0.0, 0.0, 0.0, 1.6137596860317342E9, 2021-02-19 16:34:46.031
222.0, -9830.5654296875, 18424.474609375, -12818.2783203125, 134764.078125, -187500.015625, -149431.828125, -187500.015625, -187500.015625, -0.12800000607967377, -0.6380000114440918, 0.7620000243186951, 192.0, 0.0, 0.0, 0.0, 0.0, 0.0, 0.0, 0.0, 0.0, 0.0, 1.6137596860358815E9, 2021-02-19 16:34:46.035
223.0, -9575.3525390625, 18150.80078125, -13086.8564453125, 134503.09375, -187500.015625, -148236.703125, -187500.015625, -187500.015625, -0.12800000607967377, -0.6380000114440918, 0.7620000243186951, 192.0, 0.0, 0.0, 0.0, 0.0, 0.0, 0.0, 0.0, 0.0, 0.0, 1.6137596860387409E9, 2021-02-19 16:34:46.038
224.0, -9555.794921875, 18071.49609375, -13167.970703125, 134412.5, -187500.015625, -147235.890625, -187500.015625, -187500.015625, -0.12000000476837158, -0.6380000114440918, 0.7680000066757202, 192.0, 252.0, 64.0, 236.0, 16.0, 24.0, 0.0, 0.0, 0.0, 0.0, 1.6137596860429032E9, 2021-02-19 16:34:46.042
231.0, -9666.2353515625, 18285.537109375, -12958.244140625, 134636.046875, -187500.015625, -148826.109375, -187500.015625, -187500.015625, -0.12000000476837158, -0.6380000114440918, 0.7680000066757202, 192.0, 0.0, 0.0, 0.0, 0.0, 0.0, 0.0, 0.0, 0.0, 0.0, 1.613759686045748E9, 2021-02-19 16:34:46.045
232.0, -9476.2001953125, 18130.59375, -13111.7783203125, 134479.953125, -187500.015625, -147477.34375, -187500.015625, -187500.015625, -0.12000000476837158, -0.6380000114440918, 0.7680000066757202, 192.0, 0.0, 0.0, 0.0, 0.0, 0.0, 0.0, 0.0, 0.0, 0.0, 1.6137596860497584E9, 2021-02-19 16:34:46.049
233.0, -9713.6650390625, 18249.505859375, -12997.4716796875, 134585.25, -187500.015625, -147773.453125, -187500.015625, -187500.015625, -0.12000000476837158, -0.6380000114440918, 0.7680000066757202, 192.0, 0.0, 0.0, 0.0, 0.0, 0.0, 0.0, 0.0, 0.0, 0.0, 1.613759686052874E9, 2021-02-19 16:34:46.052
234.0, -9910.78515625, 18416.31640625, -12831.48828125, 134758.234375, -187500.015625, -149065.5, -187500.015625, -187500.015625, -0.12400000542402267, -0.6340000033378601, 0.7680000066757202, 192.0, 252.0, 32.0, 236.0, 48.0, 24.0, 0.0, 0.0, 0.0, 0.0, 1.6137596860568051E9, 2021-02-19 16:34:46.056
235.0, -9707.5859375, 18291.37109375, -12949.416015625, 134649.46875, -187500.015625, -148863.59375, -187500.015625, -187500.015625, -0.12400000542402267, -0.6340000033378601, 0.7680000066757202, 192.0, 0.0, 0.0, 0.0, 0.0, 0.0, 0.0, 0.0, 0.0, 0.0, 1.6137596860598135E9, 2021-02-19 16:34:46.059
236.0, -9487.890625, 18087.970703125, -13148.748046875, 134449.421875, -187500.015625, -147467.28125, -187500.015625, -187500.015625, -0.12400000542402267, -0.6340000033378601, 0.7680000066757202, 192.0, 0.0, 0.0, 0.0, 0.0, 0.0, 0.0, 0.0, 0.0, 0.0, 1.6137596860638711E9, 2021-02-19 16:34:46.063
237.0, -9664.2685546875, 18195.080078125, -13048.7021484375, 134537.515625, -187500.015625, -147493.28125, -187500.015625, -187500.015625, -0.12400000542402267, -0.6340000033378601, 0.7680000066757202, 192.0, 0.0, 0.0, 0.0, 0.0, 0.0, 0.0, 0.0, 0.0, 0.0, 1.6137596860667548E9, 2021-02-19 16:34:46.066
238.0, -9897.240234375, 18376.21875, -12873.375, 134716.859375, -187500.015625, -149012.953125, -187500.015625, -187500.015625, -0.12400000542402267, -0.6340000033378601, 0.7680000066757202, 192.0, 0.0, 0.0, 0.0, 0.0, 0.0, 0.0, 0.0, 0.0, 0.0, 1.6137596860708065E9, 2021-02-19 16:34:46.070
239.0, -9738.1630859375, 18360.302734375, -12886.6962890625, 134712.796875, -187500.015625, -149149.515625, -187500.015625, -187500.015625, -0.12400000542402267, -0.6340000033378601, 0.7680000066757202, 192.0, 0.0, 0.0, 0.0, 0.0, 0.0, 0.0, 0.0, 0.0, 0.0, 1.6137596860737345E9, 2021-02-19 16:34:46.073
240.0, -9478.1005859375, 18156.208984375, -13087.392578125, 134511.296875, -187500.015625, -147783.0625, -187500.015625, -187500.015625, -0.12400000542402267, -0.6340000033378601, 0.7680000066757202, 192.0, 0.0, 0.0, 0.0, 0.0, 0.0, 0.0, 0.0, 0.0, 0.0, 1.6137596860767505E9, 2021-02-19 16:34:46.076
241.0, -9586.8193359375, 18168.63671875, -13077.4912109375, 134508.328125, -187500.015625, -147405.328125, -187500.015625, -187500.015625, -0.12400000542402267, -0.6340000033378601, 0.7680000066757202, 192.0, 0.0, 0.0, 0.0, 0.0, 0.0, 0.0, 0.0, 0.0, 0.0, 1.613759686079811E9, 2021-02-19 16:34:46.079
242.0, -9876.498046875, 18348.412109375, -12899.6162109375, 134689.578125, -187500.015625, -148661.609375, -187500.015625, -187500.015625, -0.12400000542402267, -0.6340000033378601, 0.7680000066757202, 192.0, 0.0, 0.0, 0.0, 0.0, 0.0, 0.0, 0.0, 0.0, 0.0, 1.613759686083852E9, 2021-02-19 16:34:46.083
243.0, -9779.6474609375, 18321.1875, -12924.1357421875, 134678.625, -187500.015625, -149137.578125, -187500.015625, -187500.015625, -0.12400000542402267, -0.6340000033378601, 0.7680000066757202, 192.0, 0.0, 0.0, 0.0, 0.0, 0.0, 0.0, 0.0, 0.0, 0.0, 1.6137596860867608E9, 2021-02-19 16:34:46.086
244.0, -9507.9619140625, 18148.72265625, -13092.35546875, 134514.421875, -187500.015625, -147857.984375, -187500.015625, -187500.015625, -0.12200000882148743, -0.6340000033378601, 0.7660000324249268, 192.0, 252.0, 48.0, 236.0, 48.0, 23.0, 240.0, 0.0, 0.0, 0.0, 1.613759686090763E9, 2021-02-19 16:34:46.090
245.0, -9516.1875, 18140.18359375, -13100.6923828125, 134494.078125, -187500.015625, -147005.25, -187500.015625, -187500.015625, -0.12200000882148743, -0.6340000033378601, 0.7660000324249268, 192.0, 0.0, 0.0, 0.0, 0.0, 0.0, 0.0, 0.0, 0.0, 0.0, 1.6137596860937564E9, 2021-02-19 16:34:46.093
246.0, -9783.89453125, 18316.5390625, -12929.90234375, 134662.84375, -187500.015625, -148177.703125, -187500.015625, -187500.015625, -0.12200000882148743, -0.6340000033378601, 0.7660000324249268, 192.0, 0.0, 0.0, 0.0, 0.0, 0.0, 0.0, 0.0, 0.0, 0.0, 1.6137596860967586E9, 2021-02-19 16:34:46.096
247.0, -9700.142578125, 18352.212890625, -12890.0048828125, 134709.515625, -187500.015625, -149049.390625, -187500.015625, -187500.015625, -0.12200000882148743, -0.6340000033378601, 0.7660000324249268, 192.0, 0.0, 0.0, 0.0, 0.0, 0.0, 0.0, 0.0, 0.0, 0.0, 1.6137596861007767E9, 2021-02-19 16:34:46.100
248.0, -9373.7626953125, 18193.044921875, -13043.8740234375, 134559.578125, -187500.015625, -148193.984375, -187500.015625, -187500.015625, -0.12200000882148743, -0.6340000033378601, 0.7660000324249268, 192.0, 0.0, 0.0, 0.0, 0.0, 0.0, 0.0, 0.0, 0.0, 0.0, 1.6137596861039295E9, 2021-02-19 16:34:46.103
249.0, -9264.5517578125, 18068.904296875, -13169.22265625, 134426.03125, -187500.015625, -147352.90625, -187500.015625, -187500.015625, -0.12200000882148743, -0.6340000033378601, 0.7660000324249268, 192.0, 0.0, 0.0, 0.0, 0.0, 0.0, 0.0, 0.0, 0.0, 0.0, 1.613759686107814E9, 2021-02-19 16:34:46.107
250.0, -9567.0830078125, 18269.107421875, -12975.34375, 134614.5625, -187500.015625, -148230.34375, -187500.015625, -187500.015625, -0.12200000882148743, -0.6340000033378601, 0.7660000324249268, 192.0, 0.0, 0.0, 0.0, 0.0, 0.0, 0.0, 0.0, 0.0, 0.0, 1.6137596861107793E9, 2021-02-19 16:34:46.110
251.0, -9610.6015625, 18358.3359375, -12884.5732421875, 134713.125, -187500.015625, -149415.78125, -187500.015625, -187500.015625, -0.12200000882148743, -0.6340000033378601, 0.7660000324249268, 192.0, 0.0, 0.0, 0.0, 0.0, 0.0, 0.0, 0.0, 0.0, 0.0, 1.613759686113784E9, 2021-02-19 16:34:46.113
252.0, -9334.2890625, 18241.50390625, -12995.080078125, 134604.078125, -187500.015625, -148718.9375, -187500.015625, -187500.015625, -0.12200000882148743, -0.6340000033378601, 0.7660000324249268, 192.0, 0.0, 0.0, 0.0, 0.0, 0.0, 0.0, 0.0, 0.0, 0.0, 1.613759686116988E9, 2021-02-19 16:34:46.116
253.0, -9168.595703125, 18112.51171875, -13121.412109375, 134469.5625, -187500.015625, -147467.0625, -187500.015625, -187500.015625, -0.12200000882148743, -0.6340000033378601, 0.7660000324249268, 192.0, 0.0, 0.0, 0.0, 0.0, 0.0, 0.0, 0.0, 0.0, 0.0, 1.6137596861210532E9, 2021-02-19 16:34:46.121
254.0, -9421.796875, 18237.904296875, -13002.5458984375, 134579.796875, -187500.015625, -147998.046875, -187500.015625, -187500.015625, -0.12600000202655792, -0.6340000033378601, 0.7660000324249268, 192.0, 252.0, 16.0, 236.0, 48.0, 23.0, 240.0, 0.0, 0.0, 0.0, 1.6137596861237953E9, 2021-02-19 16:34:46.123
255.0, -9546.384765625, 18353.0390625, -12890.0712890625, 134705.6875, -187500.015625, -149153.59375, -187500.015625, -187500.015625, -0.12600000202655792, -0.6340000033378601, 0.7660000324249268, 192.0, 0.0, 0.0, 0.0, 0.0, 0.0, 0.0, 0.0, 0.0, 0.0, 1.6137596861278017E9, 2021-02-19 16:34:46.127
0.0, -9318.375, 18225.298828125, -13011.9560546875, 134591.65625, -187500.015625, -148622.796875, -187500.015625, -187500.015625, -0.12600000202655792, -0.6340000033378601, 0.7660000324249268, 192.0, 0.0, 0.0, 0.0, 0.0, 0.0, 0.0, 0.0, 0.0, 0.0, 1.6137596861308196E9, 2021-02-19 16:34:46.130
1.0, -9131.939453125, 18069.865234375, -13162.8974609375, 134436.0, -187500.015625, -147099.84375, -187500.015625, -187500.015625, -0.12600000202655792, -0.6340000033378601, 0.7660000324249268, 192.0, 0.0, 0.0, 0.0, 0.0, 0.0, 0.0, 0.0, 0.0, 0.0, 1.613759686133845E9, 2021-02-19 16:34:46.133
2.0, -9355.4560546875, 18217.587890625, -13020.650390625, 134570.03125, -187500.015625, -147200.359375, -187500.015625, -187500.015625, -0.12600000202655792, -0.6340000033378601, 0.7660000324249268, 192.0, 0.0, 0.0, 0.0, 0.0, 0.0, 0.0, 0.0, 0.0, 0.0, 1.613759686136996E9, 2021-02-19 16:34:46.136
3.0, -9514.0419921875, 18364.953125, -12874.73828125, 134725.140625, -187500.015625, -148522.234375, -187500.015625, -187500.015625, -0.12600000202655792, -0.6340000033378601, 0.7660000324249268, 192.0, 0.0, 0.0, 0.0, 0.0, 0.0, 0.0, 0.0, 0.0, 0.0, 1.6137596861408408E9, 2021-02-19 16:34:46.140
4.0, -9279.259765625, 18169.419921875, -13063.431640625, 134544.78125, -187500.015625, -148141.796875, -187500.015625, -187500.015625, -0.12600000202655792, -0.6340000033378601, 0.7660000324249268, 192.0, 0.0, 0.0, 0.0, 0.0, 0.0, 0.0, 0.0, 0.0, 0.0, 1.6137596861438308E9, 2021-02-19 16:34:46.143
5.0, -9004.869140625, 17940.314453125, -13288.46875, 134315.359375, -187500.015625, -146343.6875, -187500.015625, -187500.015625, -0.12600000202655792, -0.6340000033378601, 0.7660000324249268, 192.0, 0.0, 0.0, 0.0, 0.0, 0.0, 0.0, 0.0, 0.0, 0.0, 1.613759686146828E9, 2021-02-19 16:34:46.146
6.0, -9064.66015625, 18055.224609375, -13179.19140625, 134413.625, -187500.015625, -145793.34375, -187500.015625, -187500.015625, -0.12600000202655792, -0.6340000033378601, 0.7660000324249268, 192.0, 0.0, 0.0, 0.0, 0.0, 0.0, 0.0, 0.0, 0.0, 0.0, 1.613759686150009E9, 2021-02-19 16:34:46.150
7.0, -9224.9892578125, 18188.28515625, -13049.640625, 134544.890625, -187500.015625, -146635.5, -187500.015625, -187500.015625, -0.12600000202655792, -0.6340000033378601, 0.7660000324249268, 192.0, 0.0, 0.0, 0.0, 0.0, 0.0, 0.0, 0.0, 0.0, 0.0, 1.613759686153829E9, 2021-02-19 16:34:46.153
8.0, -9000.041015625, 18139.513671875, -13092.220703125, 134509.1875, -187500.015625, -146348.78125, -187500.015625, -187500.015625, -0.11800000816583633, -0.6360000371932983, 0.7680000066757202, 192.0, 252.0, 80.0, 236.0, 32.0, 24.0, 0.0, 0.0, 0.0, 0.0, 1.6137596861568575E9, 2021-02-19 16:34:46.156
9.0, -8668.05078125, 17933.943359375, -13291.732421875, 134310.734375, -187500.015625, -144441.234375, -187500.015625, -187500.015625, -0.11800000816583633, -0.6360000371932983, 0.7680000066757202, 192.0, 0.0, 0.0, 0.0, 0.0, 0.0, 0.0, 0.0, 0.0, 0.0, 1.6137596861598513E9, 2021-02-19 16:34:46.159
10.0, -8719.3037109375, 17944.94140625, -13285.83203125, 134308.40625, -187500.015625, -143281.296875, -187500.015625, -187500.015625, -0.11800000816583633, -0.6360000371932983, 0.7680000066757202, 192.0, 0.0, 0.0, 0.0, 0.0, 0.0, 0.0, 0.0, 0.0, 0.0, 1.6137596861628869E9, 2021-02-19 16:34:46.162
11.0, -9020.26953125, 18137.904296875, -13097.763671875, 134499.21875, -187500.015625, -144016.640625, -187500.015625, -187500.015625, -0.11800000816583633, -0.6360000371932983, 0.7680000066757202, 192.0, 0.0, 0.0, 0.0, 0.0, 0.0, 0.0, 0.0, 0.0, 0.0, 1.6137596861669488E9, 2021-02-19 16:34:46.166
12.0, -8961.775390625, 18128.896484375, -13102.7265625, 134505.125, -187500.015625, -144161.921875, -187500.015625, -187500.015625, -0.11800000816583633, -0.6360000371932983, 0.7680000066757202, 192.0, 0.0, 0.0, 0.0, 0.0, 0.0, 0.0, 0.0, 0.0, 0.0, 1.6137596861700735E9, 2021-02-19 16:34:46.170
13.0, -8725.830078125, 17885.8203125, -13341.2861328125, 134269.390625, -187500.015625, -142491.40625, -187500.015625, -187500.015625, -0.11800000816583633, -0.6360000371932983, 0.7680000066757202, 192.0, 0.0, 0.0, 0.0, 0.0, 0.0, 0.0, 0.0, 0.0, 0.0, 1.6137596861728535E9, 2021-02-19 16:34:46.172
14.0, -8713.73828125, 17909.177734375, -13323.025390625, 134280.109375, -187500.015625, -141418.984375, -187500.015625, -187500.015625, -0.11800000816583633, -0.6360000371932983, 0.7680000066757202, 192.0, 0.0, 0.0, 0.0, 0.0, 0.0, 0.0, 0.0, 0.0, 0.0, 1.613759686175834E9, 2021-02-19 16:34:46.175
15.0, -9042.4873046875, 18078.0, -13159.9462890625, 134442.96875, -187500.015625, -141982.125, -187500.015625, -187500.015625, -0.11800000816583633, -0.6360000371932983, 0.7680000066757202, 192.0, 0.0, 0.0, 0.0, 0.0, 0.0, 0.0, 0.0, 0.0, 0.0, 1.613759686179908E9, 2021-02-19 16:34:46.179
16.0, -9083.0107421875, 18097.9609375, -13138.7353515625, 134474.21875, -187500.015625, -142450.078125, -187500.015625, -187500.015625, -0.11800000816583633, -0.6360000371932983, 0.7680000066757202, 192.0, 0.0, 0.0, 0.0, 0.0, 0.0, 0.0, 0.0, 0.0, 0.0, 1.6137596861831264E9, 2021-02-19 16:34:46.183
17.0, -8868.0322265625, 17945.1640625, -13288.7373046875, 134327.03125, -187500.015625, -141101.015625, -187500.015625, -187500.015625, -0.11800000816583633, -0.6340000033378601, 0.7740000486373901, 192.0, 252.0, 80.0, 236.0, 48.0, 24.0, 48.0, 0.0, 0.0, 0.0, 1.613759686185882E9, 2021-02-19 16:34:46.185
18.0, -8828.08984375, 17959.693359375, -13274.611328125, 134329.6875, -187500.015625, -139689.21875, -187500.015625, -187500.015625, -0.11800000816583633, -0.6340000033378601, 0.7740000486373901, 192.0, 0.0, 0.0, 0.0, 0.0, 0.0, 0.0, 0.0, 0.0, 0.0, 1.613759686188963E9, 2021-02-19 16:34:46.188
19.0, -9181.3359375, 18149.146484375, -13089.7841796875, 134508.015625, -187500.015625, -140228.46875, -187500.015625, -187500.015625, -0.11800000816583633, -0.6340000033378601, 0.7740000486373901, 192.0, 0.0, 0.0, 0.0, 0.0, 0.0, 0.0, 0.0, 0.0, 0.0, 1.6137596862040474E9, 2021-02-19 16:34:46.204
20.0, -9336.79296875, 18246.64453125, -12990.4755859375, 134613.84375, -187500.015625, -141064.25, -187500.015625, -187500.015625, -0.11800000816583633, -0.6340000033378601, 0.7740000486373901, 192.0, 0.0, 0.0, 0.0, 0.0, 0.0, 0.0, 0.0, 0.0, 0.0, 1.613759686207888E9, 2021-02-19 16:34:46.207
21.0, -9159.6552734375, 18097.603515625, -13132.1416015625, 134476.40625, -187500.015625, -140188.03125, -187500.015625, -187500.015625, -0.11800000816583633, -0.6340000033378601, 0.7740000486373901, 192.0, 0.0, 0.0, 0.0, 0.0, 0.0, 0.0, 0.0, 0.0, 0.0, 1.6137596862119339E9, 2021-02-19 16:34:46.211
22.0, -9068.125, 17947.33203125, -13281.71875, 134320.140625, -187500.015625, -138736.46875, -187500.015625, -187500.015625, -0.11800000816583633, -0.6340000033378601, 0.7740000486373901, 192.0, 0.0, 0.0, 0.0, 0.0, 0.0, 0.0, 0.0, 0.0, 0.0, 1.6137596862150266E9, 2021-02-19 16:34:46.215
23.0, -9405.591796875, 18103.5703125, -13130.6884765625, 134458.765625, -187500.015625, -139095.4375, -187500.015625, -187500.015625, -0.11800000816583633, -0.6340000033378601, 0.7740000486373901, 192.0, 0.0, 0.0, 0.0, 0.0, 0.0, 0.0, 0.0, 0.0, 0.0, 1.6137596862189364E9, 2021-02-19 16:34:46.218
24.0, -9609.5732421875, 18265.46484375, -12968.6162109375, 134626.984375, -187500.015625, -140442.390625, -187500.015625, -187500.015625, -0.11800000816583633, -0.6340000033378601, 0.7740000486373901, 192.0, 0.0, 0.0, 0.0, 0.0, 0.0, 0.0, 0.0, 0.0, 0.0, 1.6137596862219577E9, 2021-02-19 16:34:46.221
25.0, -9412.5205078125, 18153.572265625, -13071.9033203125, 134527.90625, -187500.015625, -140077.6875, -187500.015625, -187500.015625, -0.11800000816583633, -0.6340000033378601, 0.7740000486373901, 192.0, 0.0, 0.0, 0.0, 0.0, 0.0, 0.0, 0.0, 0.0, 0.0, 1.613759686225922E9, 2021-02-19 16:34:46.225
26.0, -9237.4619140625, 17984.75, -13238.6474609375, 134358.515625, -187500.015625, -138551.171875, -187500.015625, -187500.015625, -0.11800000816583633, -0.6340000033378601, 0.7740000486373901, 192.0, 0.0, 0.0, 0.0, 0.0, 0.0, 0.0, 0.0, 0.0, 0.0, 1.6137596862289865E9, 2021-02-19 16:34:46.228
27.0, -9500.474609375, 18073.0390625, -13160.8408203125, 134429.171875, -187500.015625, -138631.1875, -187500.015625, -187500.015625, -0.11800000816583633, -0.6360000371932983, 0.7760000228881836, 192.0, 252.0, 80.0, 236.0, 32.0, 24.0, 64.0, 0.0, 0.0, 0.0, 1.6137596862330043E9, 2021-02-19 16:34:46.233
28.0, -9772.9873046875, 18312.26953125, -12927.9580078125, 134669.328125, -187500.015625, -139961.234375, -187500.015625, -187500.015625, -0.11800000816583633, -0.6360000371932983, 0.7760000228881836, 192.0, 0.0, 0.0, 0.0, 0.0, 0.0, 0.0, 0.0, 0.0, 0.0, 1.6137596862360911E9, 2021-02-19 16:34:46.236
29.0, -9618.916015625, 18254.1328125, -12981.087890625, 134624.0625, -187500.015625, -139923.96875, -187500.015625, -187500.015625, -0.11800000816583633, -0.6360000371932983, 0.7760000228881836, 192.0, 0.0, 0.0, 0.0, 0.0, 0.0, 0.0, 0.0, 0.0, 0.0, 1.61375968623996E9, 2021-02-19 16:34:46.239
30.0, -9382.4130859375, 18064.3671875, -13164.640625, 134437.421875, -187500.015625, -138528.421875, -187500.015625, -187500.015625, -0.11800000816583633, -0.6360000371932983, 0.7760000228881836, 192.0, 0.0, 0.0, 0.0, 0.0, 0.0, 0.0, 0.0, 0.0, 0.0, 1.613759686243074E9, 2021-02-19 16:34:46.243
31.0, -9545.22265625, 18129.544921875, -13104.73828125, 134484.703125, -187500.015625, -138205.40625, -187500.015625, -187500.015625, -0.11800000816583633, -0.6360000371932983, 0.7760000228881836, 192.0, 0.0, 0.0, 0.0, 0.0, 0.0, 0.0, 0.0, 0.0, 0.0, 1.6137596862470345E9, 2021-02-19 16:34:46.247
32.0, -9854.056640625, 18324.98828125, -12915.552734375, 134679.5625, -187500.015625, -139477.921875, -187500.015625, -187500.015625, -0.11800000816583633, -0.6360000371932983, 0.7760000228881836, 192.0, 0.0, 0.0, 0.0, 0.0, 0.0, 0.0, 0.0, 0.0, 0.0, 1.613759686250109E9, 2021-02-19 16:34:46.250
33.0, -9734.8994140625, 18294.07421875, -12941.078125, 134661.125, -187500.015625, -139878.109375, -187500.015625, -187500.015625, -0.11800000816583633, -0.6360000371932983, 0.7760000228881836, 192.0, 0.0, 0.0, 0.0, 0.0, 0.0, 0.0, 0.0, 0.0, 0.0, 1.6137596862540128E9, 2021-02-19 16:34:46.254
34.0, -9472.2666015625, 18086.31640625, -13143.7861328125, 134459.0, -187500.015625, -138540.046875, -187500.015625, -187500.015625, -0.11800000816583633, -0.6360000371932983, 0.7760000228881836, 192.0, 0.0, 0.0, 0.0, 0.0, 0.0, 0.0, 0.0, 0.0, 0.0, 1.6137596862569468E9, 2021-02-19 16:34:46.256
35.0, -9524.5693359375, 18078.849609375, -13155.2080078125, 134437.15625, -187500.015625, -138107.0, -187500.015625, -187500.015625, -0.11800000816583633, -0.6360000371932983, 0.7760000228881836, 192.0, 0.0, 0.0, 0.0, 0.0, 0.0, 0.0, 0.0, 0.0, 0.0, 1.6137596862609675E9, 2021-02-19 16:34:46.260
36.0, -9833.8505859375, 18282.697265625, -12958.2001953125, 134633.0625, -187500.015625, -139282.875, -187500.015625, -187500.015625, -0.11800000816583633, -0.6360000371932983, 0.7760000228881836, 192.0, 0.0, 0.0, 0.0, 0.0, 0.0, 0.0, 0.0, 0.0, 0.0, 1.613759686264058E9, 2021-02-19 16:34:46.264
37.0, -9768.248046875, 18308.73828125, -12927.5107421875, 134673.125, -187500.015625, -139869.234375, -187500.015625, -187500.015625, -0.12000000476837158, -0.6300000548362732, 0.7680000066757202, 192.0, 252.0, 64.0, 236.0, 80.0, 24.0, 0.0, 0.0, 0.0, 0.0, 1.6137596862672179E9, 2021-02-19 16:34:46.267
38.0, -9465.494140625, 18155.560546875, -13074.7197265625, 134528.625, -187500.015625, -138691.390625, -187500.015625, -187500.015625, -0.12000000476837158, -0.6300000548362732, 0.7680000066757202, 192.0, 0.0, 0.0, 0.0, 0.0, 0.0, 0.0, 0.0, 0.0, 0.0, 1.6137596862709851E9, 2021-02-19 16:34:46.270
39.0, -9407.7822265625, 18119.888671875, -13112.0244140625, 134483.640625, -187500.015625, -137723.15625, -187500.015625, -187500.015625, -0.12000000476837158, -0.6300000548362732, 0.7680000066757202, 192.0, 0.0, 0.0, 0.0, 0.0, 0.0, 0.0, 0.0, 0.0, 0.0, 1.6137596862739692E9, 2021-02-19 16:34:46.273
40.0, -9730.3173828125, 18279.234375, -12959.6083984375, 134635.609375, -187500.015625, -138645.359375, -187500.015625, -187500.015625, -0.12000000476837158, -0.6300000548362732, 0.7680000066757202, 192.0, 0.0, 0.0, 0.0, 0.0, 0.0, 0.0, 0.0, 0.0, 0.0, 1.6137596862770877E9, 2021-02-19 16:34:46.277
41.0, -9760.537109375, 18270.494140625, -12966.4921875, 134636.578125, -187500.015625, -139460.4375, -187500.015625, -187500.015625, -0.12000000476837158, -0.6300000548362732, 0.7680000066757202, 192.0, 0.0, 0.0, 0.0, 0.0, 0.0, 0.0, 0.0, 0.0, 0.0, 1.6137596862800682E9, 2021-02-19 16:34:46.280
42.0, -9486.9072265625, 18099.2578125, -13133.3701171875, 134472.984375, -187500.015625, -138367.390625, -187500.015625, -187500.015625, -0.12000000476837158, -0.6300000548362732, 0.7680000066757202, 192.0, 0.0, 0.0, 0.0, 0.0, 0.0, 0.0, 0.0, 0.0, 0.0, 1.6137596862842245E9, 2021-02-19 16:34:46.284
43.0, -9344.1240234375, 18054.755859375, -13179.9736328125, 134420.03125, -187500.015625, -137107.578125, -187500.015625, -187500.015625, -0.12000000476837158, -0.6300000548362732, 0.7680000066757202, 192.0, 0.0, 0.0, 0.0, 0.0, 0.0, 0.0, 0.0, 0.0, 0.0, 1.6137596862870712E9, 2021-02-19 16:34:46.287
44.0, -9628.974609375, 18228.16015625, -13014.458984375, 134581.140625, -187500.015625, -137674.9375, -187500.015625, -187500.015625, -0.12000000476837158, -0.6300000548362732, 0.7680000066757202, 192.0, 0.0, 0.0, 0.0, 0.0, 0.0, 0.0, 0.0, 0.0, 0.0, 1.6137596862900374E9, 2021-02-19 16:34:46.290
45.0, -9724.7294921875, 18332.453125, -12910.568359375, 134693.3125, -187500.015625, -138811.25, -187500.015625, -187500.015625, -0.12000000476837158, -0.6300000548362732, 0.7680000066757202, 192.0, 0.0, 0.0, 0.0, 0.0, 0.0, 0.0, 0.0, 0.0, 0.0, 1.613759686294019E9, 2021-02-19 16:34:46.294
46.0, -9430.5810546875, 18171.005859375, -13063.587890625, 134544.59375, -187500.015625, -138213.640625, -187500.015625, -187500.015625, -0.12000000476837158, -0.6300000548362732, 0.7680000066757202, 192.0, 0.0, 0.0, 0.0, 0.0, 0.0, 0.0, 0.0, 0.0, 0.0, 1.6137596862970815E9, 2021-02-19 16:34:46.297
47.0, -9235.5166015625, 17990.42578125, -13240.48046875, 134359.4375, -187500.015625, -136634.40625, -187500.015625, -187500.015625, -0.12000000476837158, -0.6300000548362732, 0.7700000405311584, 192.0, 252.0, 64.0, 236.0, 80.0, 24.0, 16.0, 0.0, 0.0, 0.0, 1.613759686300034E9, 2021-02-19 16:34:46.300
48.0, -9510.3984375, 18147.58203125, -13089.3154296875, 134500.671875, -187500.015625, -136855.5, -187500.015625, -187500.015625, -0.12000000476837158, -0.6300000548362732, 0.7700000405311584, 192.0, 0.0, 0.0, 0.0, 0.0, 0.0, 0.0, 0.0, 0.0, 0.0, 1.6137596863041878E9, 2021-02-19 16:34:46.304
49.0, -9703.3837890625, 18288.93359375, -12948.3876953125, 134650.015625, -187500.015625, -138030.421875, -187500.015625, -187500.015625, -0.12000000476837158, -0.6300000548362732, 0.7700000405311584, 192.0, 0.0, 0.0, 0.0, 0.0, 0.0, 0.0, 0.0, 0.0, 0.0, 1.6137596863070803E9, 2021-02-19 16:34:46.307
50.0, -9475.552734375, 18215.107421875, -13017.0068359375, 134588.8125, -187500.015625, -137577.0625, -187500.015625, -187500.015625, -0.12000000476837158, -0.6300000548362732, 0.7700000405311584, 192.0, 0.0, 0.0, 0.0, 0.0, 0.0, 0.0, 0.0, 0.0, 0.0, 1.613759686310036E9, 2021-02-19 16:34:46.310
51.0, -9228.498046875, 18005.693359375, -13223.3359375, 134377.46875, -187500.015625, -135957.1875, -187500.015625, -187500.015625, -0.12000000476837158, -0.6300000548362732, 0.7700000405311584, 192.0, 0.0, 0.0, 0.0, 0.0, 0.0, 0.0, 0.0, 0.0, 0.0, 1.613759686314123E9, 2021-02-19 16:34:46.314
52.0, -9448.2158203125, 18111.283203125, -13123.3125, 134460.5625, -187500.015625, -135750.875, -187500.015625, -187500.015625, -0.12000000476837158, -0.6300000548362732, 0.7700000405311584, 192.0, 0.0, 0.0, 0.0, 0.0, 0.0, 0.0, 0.0, 0.0, 0.0, 1.6137596863172653E9, 2021-02-19 16:34:46.317
53.0, -9721.2646484375, 18345.8203125, -12889.177734375, 134698.0625, -187500.015625, -136899.53125, -187500.015625, -187500.015625, -0.12000000476837158, -0.6300000548362732, 0.7700000405311584, 192.0, 0.0, 0.0, 0.0, 0.0, 0.0, 0.0, 0.0, 0.0, 0.0, 1.613759686320304E9, 2021-02-19 16:34:46.320
54.0, -9544.865234375, 18296.0859375, -12935.6689453125, 134663.4375, -187500.015625, -136843.96875, -187500.015625, -187500.015625, -0.12000000476837158, -0.6300000548362732, 0.7700000405311584, 192.0, 0.0, 0.0, 0.0, 0.0, 0.0, 0.0, 0.0, 0.0, 0.0, 1.6137596863230665E9, 2021-02-19 16:34:46.323
55.0, -9276.2861328125, 18056.85546875, -13174.251953125, 134426.1875, -187500.015625, -135275.453125, -187500.015625, -187500.015625, -0.12000000476837158, -0.6300000548362732, 0.7700000405311584, 192.0, 0.0, 0.0, 0.0, 0.0, 0.0, 0.0, 0.0, 0.0, 0.0, 1.6137596863270366E9, 2021-02-19 16:34:46.327
56.0, -9401.2998046875, 18096.28515625, -13138.3330078125, 134449.21875, -187500.015625, -134909.203125, -187500.015625, -187500.015625, -0.12000000476837158, -0.6300000548362732, 0.7700000405311584, 192.0, 0.0, 0.0, 0.0, 0.0, 0.0, 0.0, 0.0, 0.0, 0.0, 1.6137596863301115E9, 2021-02-19 16:34:46.330
57.0, -9706.3564453125, 18308.380859375, -12931.802734375, 134656.65625, -187500.015625, -136200.15625, -187500.015625, -187500.015625, -0.12200000882148743, -0.6320000290870667, 0.7660000324249268, 192.0, 252.0, 48.0, 236.0, 64.0, 23.0, 240.0, 0.0, 0.0, 0.0, 1.613759686333162E9, 2021-02-19 16:34:46.333
58.0, -9618.3798828125, 18253.015625, -12983.099609375, 134614.53125, -187500.015625, -136431.421875, -187500.015625, -187500.015625, -0.12200000882148743, -0.6320000290870667, 0.7660000324249268, 192.0, 0.0, 0.0, 0.0, 0.0, 0.0, 0.0, 0.0, 0.0, 0.0, 1.6137596863362472E9, 2021-02-19 16:34:46.336
59.0, -9332.8583984375, 18055.603515625, -13173.9169921875, 134421.6875, -187500.015625, -135003.5, -187500.015625, -187500.015625, -0.12200000882148743, -0.6320000290870667, 0.7660000324249268, 192.0, 0.0, 0.0, 0.0, 0.0, 0.0, 0.0, 0.0, 0.0, 0.0, 1.613759686340071E9, 2021-02-19 16:34:46.340
60.0, -9365.9169921875, 18069.39453125, -13162.94140625, 134421.171875, -187500.015625, -134205.546875, -187500.015625, -187500.015625, -0.12200000882148743, -0.6320000290870667, 0.7660000324249268, 192.0, 0.0, 0.0, 0.0, 0.0, 0.0, 0.0, 0.0, 0.0, 0.0, 1.6137596863430617E9, 2021-02-19 16:34:46.343
61.0, -9721.2646484375, 18269.734375, -12968.99609375, 134617.125, -187500.015625, -135242.515625, -187500.015625, -187500.015625, -0.12200000882148743, -0.6320000290870667, 0.7660000324249268, 192.0, 0.0, 0.0, 0.0, 0.0, 0.0, 0.0, 0.0, 0.0, 0.0, 1.6137596863460867E9, 2021-02-19 16:34:46.346
62.0, -9683.9375, 18334.888671875, -12900.9345703125, 134694.796875, -187500.015625, -135859.515625, -187500.015625, -187500.015625, -0.12200000882148743, -0.6320000290870667, 0.7660000324249268, 192.0, 0.0, 0.0, 0.0, 0.0, 0.0, 0.0, 0.0, 0.0, 0.0, 1.6137596863501759E9, 2021-02-19 16:34:46.350
63.0, -9398.39453125, 18100.21875, -13127.693359375, 134470.6875, -187500.015625, -134533.671875, -187500.015625, -187500.015625, -0.12200000882148743, -0.6320000290870667, 0.7660000324249268, 192.0, 0.0, 0.0, 0.0, 0.0, 0.0, 0.0, 0.0, 0.0, 0.0, 1.6137596863532553E9, 2021-02-19 16:34:46.353
64.0, -9356.619140625, 18003.748046875, -13224.677734375, 134363.890625, -187500.015625, -133459.734375, -187500.015625, -187500.015625, -0.12200000882148743, -0.6320000290870667, 0.7660000324249268, 192.0, 0.0, 0.0, 0.0, 0.0, 0.0, 0.0, 0.0, 0.0, 0.0, 1.613759686356138E9, 2021-02-19 16:34:46.356
65.0, -9721.533203125, 18185.021484375, -13050.6240234375, 134533.109375, -187500.015625, -134261.15625, -187500.015625, -187500.015625, -0.12200000882148743, -0.6320000290870667, 0.7660000324249268, 192.0, 0.0, 0.0, 0.0, 0.0, 0.0, 0.0, 0.0, 0.0, 0.0, 1.613759686359099E9, 2021-02-19 16:34:46.359
66.0, -9795.205078125, 18309.1171875, -12924.9853515625, 134665.09375, -187500.015625, -135211.375, -187500.015625, -187500.015625, -0.12200000882148743, -0.6320000290870667, 0.7660000324249268, 192.0, 0.0, 0.0, 0.0, 0.0, 0.0, 0.0, 0.0, 0.0, 0.0, 1.6137596863672051E9, 2021-02-19 16:34:46.367
67.0, -9490.505859375, 18149.5703125, -13075.30078125, 134517.6875, -187500.015625, -134483.046875, -187500.015625, -187500.015625, -0.12600000202655792, -0.6380000114440918, 0.7640000581741333, 192.0, 252.0, 16.0, 236.0, 16.0, 23.0, 224.0, 0.0, 0.0, 0.0, 1.6137596863704453E9, 2021-02-19 16:34:46.370
68.0, -9360.7763671875, 17980.8828125, -13242.044921875, 134343.6875, -187500.015625, -133141.15625, -187500.015625, -187500.015625, -0.12600000202655792, -0.6380000114440918, 0.7640000581741333, 192.0, 0.0, 0.0, 0.0, 0.0, 0.0, 0.0, 0.0, 0.0, 0.0, 1.6137596863740883E9, 2021-02-19 16:34:46.374
69.0, -9700.544921875, 18177.220703125, -13052.6806640625, 134527.046875, -187500.015625, -133671.765625, -187500.015625, -187500.015625, -0.12600000202655792, -0.6380000114440918, 0.7640000581741333, 192.0, 0.0, 0.0, 0.0, 0.0, 0.0, 0.0, 0.0, 0.0, 0.0, 1.6137596863911278E9, 2021-02-19 16:34:46.391
70.0, -9855.912109375, 18309.341796875, -12921.23046875, 134667.5625, -187500.015625, -134853.84375, -187500.015625, -187500.015625, -0.12600000202655792, -0.6380000114440918, 0.7640000581741333, 192.0, 0.0, 0.0, 0.0, 0.0, 0.0, 0.0, 0.0, 0.0, 0.0, 1.613759686396164E9, 2021-02-19 16:34:46.396
71.0, -9618.9833984375, 18161.41796875, -13062.671875, 134531.59375, -187500.015625, -134265.5625, -187500.015625, -187500.015625, -0.12600000202655792, -0.6380000114440918, 0.7640000581741333, 192.0, 0.0, 0.0, 0.0, 0.0, 0.0, 0.0, 0.0, 0.0, 0.0, 1.6137596863991446E9, 2021-02-19 16:34:46.399
72.0, -9429.3955078125, 17991.431640625, -13229.0810546875, 134355.609375, -187500.015625, -132832.875, -187500.015625, -187500.015625, -0.12600000202655792, -0.6380000114440918, 0.7640000581741333, 192.0, 0.0, 0.0, 0.0, 0.0, 0.0, 0.0, 0.0, 0.0, 0.0, 1.6137596864471955E9, 2021-02-19 16:34:46.447
73.0, -9712.1455078125, 18148.296875, -13079.033203125, 134492.90625, -187500.015625, -133070.53125, -187500.015625, -187500.015625, -0.12600000202655792, -0.6380000114440918, 0.7640000581741333, 192.0, 0.0, 0.0, 0.0, 0.0, 0.0, 0.0, 0.0, 0.0, 0.0, 1.6137596864631944E9, 2021-02-19 16:34:46.463
74.0, -9965.435546875, 18335.224609375, -12895.861328125, 134684.96875, -187500.015625, -134366.015625, -187500.015625, -187500.015625, -0.12600000202655792, -0.6380000114440918, 0.7640000581741333, 192.0, 0.0, 0.0, 0.0, 0.0, 0.0, 0.0, 0.0, 0.0, 0.0, 1.6137596864672005E9, 2021-02-19 16:34:46.467
75.0, -9777.4794921875, 18221.521484375, -13006.390625, 134582.734375, -187500.015625, -134168.171875, -187500.015625, -187500.015625, -0.12600000202655792, -0.6380000114440918, 0.7640000581741333, 192.0, 0.0, 0.0, 0.0, 0.0, 0.0, 0.0, 0.0, 0.0, 0.0, 1.613759686470306E9, 2021-02-19 16:34:46.470
76.0, -9537.1318359375, 18060.34375, -13166.5849609375, 134419.984375, -187500.015625, -132801.125, -187500.015625, -187500.015625, -0.12600000202655792, -0.6380000114440918, 0.7640000581741333, 192.0, 0.0, 0.0, 0.0, 0.0, 0.0, 0.0, 0.0, 0.0, 0.0, 1.6137596864742303E9, 2021-02-19 16:34:46.474
77.0, -9743.818359375, 18161.08203125, -13071.1875, 134503.828125, -187500.015625, -132826.09375, -187500.015625, -187500.015625, -0.12800000607967377, -0.6340000033378601, 0.7620000243186951, 192.0, 252.0, 0.0, 236.0, 48.0, 23.0, 208.0, 0.0, 0.0, 0.0, 1.6137596864772544E9, 2021-02-19 16:34:46.477
78.0, -10035.4638671875, 18362.046875, -12874.3583984375, 134705.421875, -187500.015625, -134431.25, -187500.015625, -187500.015625, -0.12800000607967377, -0.6340000033378601, 0.7620000243186951, 192.0, 0.0, 0.0, 0.0, 0.0, 0.0, 0.0, 0.0, 0.0, 0.0, 1.6137596864813538E9, 2021-02-19 16:34:46.481
79.0, -9901.0625, 18279.94921875, -12951.337890625, 134638.25, -187500.015625, -134633.1875, -187500.015625, -187500.015625, -0.12800000607967377, -0.6340000033378601, 0.7620000243186951, 192.0, 0.0, 0.0, 0.0, 0.0, 0.0, 0.0, 0.0, 0.0, 0.0, 1.6137596864842305E9, 2021-02-19 16:34:46.484
80.0, -9649.560546875, 18076.16796875, -13149.6650390625, 134436.65625, -187500.015625, -133333.375, -187500.015625, -187500.015625, -0.12800000607967377, -0.6340000033378601, 0.7620000243186951, 192.0, 0.0, 0.0, 0.0, 0.0, 0.0, 0.0, 0.0, 0.0, 0.0, 1.6137596864892173E9, 2021-02-19 16:34:46.489
81.0, -9773.8583984375, 18128.13671875, -13102.79296875, 134472.09375, -187500.015625, -133013.140625, -187500.015625, -187500.015625, -0.12800000607967377, -0.6340000033378601, 0.7620000243186951, 192.0, 0.0, 0.0, 0.0, 0.0, 0.0, 0.0, 0.0, 0.0, 0.0, 1.6137596864952517E9, 2021-02-19 16:34:46.495
82.0, -10142.0146484375, 18340.208984375, -12898.6767578125, 134678.484375, -187500.015625, -134414.421875, -187500.015625, -187500.015625, -0.12800000607967377, -0.6340000033378601, 0.7620000243186951, 192.0, 0.0, 0.0, 0.0, 0.0, 0.0, 0.0, 0.0, 0.0, 0.0, 1.6137596865354445E9, 2021-02-19 16:34:46.535
83.0, -10081.6865234375, 18361.443359375, -12872.97265625, 134713.25, -187500.015625, -135119.734375, -187500.015625, -187500.015625, -0.12800000607967377, -0.6340000033378601, 0.7620000243186951, 192.0, 0.0, 0.0, 0.0, 0.0, 0.0, 0.0, 0.0, 0.0, 0.0, 1.6137596865393565E9, 2021-02-19 16:34:46.539
84.0, -9818.0703125, 18164.099609375, -13064.1025390625, 134521.578125, -187500.015625, -133941.8125, -187500.015625, -187500.015625, -0.12800000607967377, -0.6340000033378601, 0.7620000243186951, 192.0, 0.0, 0.0, 0.0, 0.0, 0.0, 0.0, 0.0, 0.0, 0.0, 1.6137596865513427E9, 2021-02-19 16:34:46.551
85.0, -9868.1826171875, 18158.802734375, -13071.478515625, 134503.921875, -187500.015625, -133372.046875, -187500.015625, -187500.015625, -0.12800000607967377, -0.6340000033378601, 0.7620000243186951, 192.0, 0.0, 0.0, 0.0, 0.0, 0.0, 0.0, 0.0, 0.0, 0.0, 1.6137596865914018E9, 2021-02-19 16:34:46.591
86.0, -10274.91796875, 18392.9375, -12843.06640625, 134729.578125, -187500.015625, -134796.75, -187500.015625, -187500.015625, -0.12000000476837158, -0.6420000195503235, 0.7680000066757202, 192.0, 252.0, 64.0, 235.0, 240.0, 24.0, 0.0, 0.0, 0.0, 0.0, 1.613759686661434E9, 2021-02-19 16:34:46.661
87.0, -10332.6298828125, 18487.75390625, -12744.3828125, 134836.9375, -187500.015625, -135962.296875, -187500.015625, -187500.015625, -0.12000000476837158, -0.6420000195503235, 0.7680000066757202, 192.0, 0.0, 0.0, 0.0, 0.0, 0.0, 0.0, 0.0, 0.0, 0.0, 1.6137596866654503E9, 2021-02-19 16:34:46.665
88.0, -10100.6630859375, 18290.119140625, -12934.775390625, 134649.65625, -187500.015625, -135495.875, -187500.015625, -187500.015625, -0.12000000476837158, -0.6420000195503235, 0.7680000066757202, 192.0, 0.0, 0.0, 0.0, 0.0, 0.0, 0.0, 0.0, 0.0, 0.0, 1.6137596867285137E9, 2021-02-19 16:34:46.728
89.0, -10069.259765625, 18186.00390625, -13039.4482421875, 134534.828125, -187500.015625, -134930.078125, -187500.015625, -187500.015625, -0.12000000476837158, -0.6420000195503235, 0.7680000066757202, 192.0, 0.0, 0.0, 0.0, 0.0, 0.0, 0.0, 0.0, 0.0, 0.0, 1.6137596867326832E9, 2021-02-19 16:34:46.732
90.0, -10431.044921875, 18406.080078125, -12829.0517578125, 134740.265625, -187500.015625, -136116.484375, -187500.015625, -187500.015625, -0.12000000476837158, -0.6420000195503235, 0.7680000066757202, 192.0, 0.0, 0.0, 0.0, 0.0, 0.0, 0.0, 0.0, 0.0, 0.0, 1.6137596867475457E9, 2021-02-19 16:34:46.747
91.0, -10476.3291015625, 18563.033203125, -12671.44921875, 134907.921875, -187500.015625, -137610.390625, -187500.015625, -187500.015625, -0.12000000476837158, -0.6420000195503235, 0.7680000066757202, 192.0, 0.0, 0.0, 0.0, 0.0, 0.0, 0.0, 0.0, 0.0, 0.0, 1.6137596867506287E9, 2021-02-19 16:34:46.750
92.0, -10174.6474609375, 18351.876953125, -12875.5205078125, 134708.015625, -187500.015625, -137182.640625, -187500.015625, -187500.015625, -0.12000000476837158, -0.6420000195503235, 0.7680000066757202, 192.0, 0.0, 0.0, 0.0, 0.0, 0.0, 0.0, 0.0, 0.0, 0.0, 1.6137596867546875E9, 2021-02-19 16:34:46.754
104.0, -10566.8095703125, 18514.84375, -12712.62109375, 134863.109375, -187500.015625, -143576.21875, -187500.015625, -187500.015625, -0.12000000476837158, -0.6420000195503235, 0.7680000066757202, 192.0, 0.0, 0.0, 0.0, 0.0, 0.0, 0.0, 0.0, 0.0, 0.0, 1.6137596867585878E9, 2021-02-19 16:34:46.758
153.0, -10121.6962890625, 18439.47265625, -12765.9521484375, 134765.75, -187500.015625, -134611.71875, -187500.015625, -187500.015625, -0.12000000476837158, -0.6420000195503235, 0.7680000066757202, 192.0, 0.0, 0.0, 0.0, 0.0, 0.0, 0.0, 0.0, 0.0, 0.0, 1.6137596868126445E9, 2021-02-19 16:34:46.812
95.0, -10600.5830078125, 18525.103515625, -12709.5146484375, 134860.9375, -187500.015625, -138812.734375, -187500.015625, -187500.015625, -0.12000000476837158, -0.6420000195503235, 0.7680000066757202, 192.0, 0.0, 0.0, 0.0, 0.0, 0.0, 0.0, 0.0, 0.0, 0.0, 1.6137596869598472E9, 2021-02-19 16:34:46.959
96.0, -10432.20703125, 18414.685546875, -12814.0087890625, 134762.0, -187500.015625, -138840.0625, -187500.015625, -187500.015625, -0.12400000542402267, -0.6360000371932983, 0.7680000066757202, 192.0, 252.0, 32.0, 236.0, 32.0, 24.0, 0.0, 0.0, 0.0, 0.0, 1.6137596869768438E9, 2021-02-19 16:34:46.976
151.0, -9640.4638671875, 18157.796875, -13046.4892578125, 134499.984375, -187500.015625, -132793.03125, -187500.015625, -187500.015625, -0.12400000542402267, -0.6360000371932983, 0.7680000066757202, 192.0, 0.0, 0.0, 0.0, 0.0, 0.0, 0.0, 0.0, 0.0, 0.0, 1.6137596869978309E9, 2021-02-19 16:34:46.997
136.0, -9453.916015625, 18112.35546875, -13093.271484375, 134434.8125, -187500.015625, -133365.40625, -187500.015625, -187500.015625, -0.12200000882148743, -0.628000020980835, 0.7640000581741333, 192.0, 252.0, 48.0, 236.0, 96.0, 23.0, 224.0, 0.0, 0.0, 0.0, 1.613759687140977E9, 2021-02-19 16:34:47.140
169.0, -9692.498046875, 18148.341796875, -13043.13671875, 134495.375, -187500.015625, -134623.203125, -187500.015625, -187500.015625, -0.12200000882148743, -0.628000020980835, 0.7640000581741333, 192.0, 0.0, 0.0, 0.0, 0.0, 0.0, 0.0, 0.0, 0.0, 0.0, 1.613759687161013E9, 2021-02-19 16:34:47.161
210.0, -9574.7490234375, 18097.24609375, -13104.1572265625, 134438.390625, -187500.015625, -130871.203125, -187500.015625, -187500.015625, -0.12200000882148743, -0.628000020980835, 0.7640000581741333, 192.0, 0.0, 0.0, 0.0, 0.0, 0.0, 0.0, 0.0, 0.0, 0.0, 1.6137596871660287E9, 2021-02-19 16:34:47.166
2.0, -9468.8466796875, 18181.154296875, -13016.11328125, 134503.140625, -187500.015625, -132535.484375, -187500.015625, -187500.015625, -0.12200000882148743, -0.628000020980835, 0.7640000581741333, 192.0, 0.0, 0.0, 0.0, 0.0, 0.0, 0.0, 0.0, 0.0, 0.0, 1.6137596871871388E9, 2021-02-19 16:34:47.187
3.0, -9062.6484375, 18072.255859375, -13118.484375, 134406.6875, -187500.015625, -131842.359375, -187500.015625, -187500.015625, -0.12200000882148743, -0.628000020980835, 0.7640000581741333, 192.0, 0.0, 0.0, 0.0, 0.0, 0.0, 0.0, 0.0, 0.0, 0.0, 1.6137596872661872E9, 2021-02-19 16:34:47.266
4.0, -8867.4951171875, 17916.443359375, -13271.50390625, 134244.96875, -187500.015625, -130506.3125, -187500.015625, -187500.015625, -0.12200000882148743, -0.628000020980835, 0.7640000581741333, 192.0, 0.0, 0.0, 0.0, 0.0, 0.0, 0.0, 0.0, 0.0, 0.0, 1.6137596872692647E9, 2021-02-19 16:34:47.269
5.0, -9252.5263671875, 18066.37890625, -13129.6826171875, 134378.53125, -187500.015625, -131095.921875, -187500.015625, -187500.015625, -0.12200000882148743, -0.628000020980835, 0.7640000581741333, 192.0, 0.0, 0.0, 0.0, 0.0, 0.0, 0.0, 0.0, 0.0, 0.0, 1.6137596874143407E9, 2021-02-19 16:34:47.414
6.0, -9418.935546875, 18218.705078125, -12978.427734375, 134538.5, -187500.015625, -132401.578125, -187500.015625, -187500.015625, -0.12200000882148743, -0.628000020980835, 0.7640000581741333, 192.0, 0.0, 0.0, 0.0, 0.0, 0.0, 0.0, 0.0, 0.0, 0.0, 1.613759687434364E9, 2021-02-19 16:34:47.434
7.0, -9064.6376953125, 18092.484375, -13100.0439453125, 134421.171875, -187500.015625, -131970.578125, -187500.015625, -187500.015625, -0.12200000882148743, -0.628000020980835, 0.7640000581741333, 192.0, 0.0, 0.0, 0.0, 0.0, 0.0, 0.0, 0.0, 0.0, 0.0, 1.6137596874565637E9, 2021-02-19 16:34:47.456
8.0, -8775.5185546875, 18013.740234375, -13179.68359375, 134334.9375, -187500.015625, -130631.5, -187500.015625, -187500.015625, -0.1300000101327896, -0.64000004529953, 0.7580000162124634, 192.0, 251.0, 240.0, 236.0, 0.0, 23.0, 176.0, 0.0, 0.0, 0.0, 1.613759687466482E9, 2021-02-19 16:34:47.466
69.0, -9955.779296875, 18312.134765625, -12880.1474609375, 134588.296875, -187500.015625, -136378.734375, -187500.015625, -187500.015625, -0.1300000101327896, -0.64000004529953, 0.7580000162124634, 192.0, 0.0, 0.0, 0.0, 0.0, 0.0, 0.0, 0.0, 0.0, 0.0, 1.6137596877007763E9, 2021-02-19 16:34:47.700
10.0, -9350.94140625, 18332.876953125, -12872.01171875, 134639.59375, -187500.015625, -132167.25, -187500.015625, -187500.015625, -0.1300000101327896, -0.64000004529953, 0.7580000162124634, 192.0, 0.0, 0.0, 0.0, 0.0, 0.0, 0.0, 0.0, 0.0, 0.0, 1.613759687715654E9, 2021-02-19 16:34:47.715
11.0, -9154.603515625, 18272.28125, -12926.818359375, 134591.453125, -187500.015625, -132096.09375, -187500.015625, -187500.015625, -0.1300000101327896, -0.64000004529953, 0.7580000162124634, 192.0, 0.0, 0.0, 0.0, 0.0, 0.0, 0.0, 0.0, 0.0, 0.0, 1.6137596877417011E9, 2021-02-19 16:34:47.741
144.0, -9567.9765625, 18145.078125, -13032.4521484375, 134348.078125, -187500.015625, -134988.546875, -187500.015625, -187500.015625, -0.1300000101327896, -0.64000004529953, 0.7580000162124634, 192.0, 0.0, 0.0, 0.0, 0.0, 0.0, 0.0, 0.0, 0.0, 0.0, 1.6137596877967703E9, 2021-02-19 16:34:47.796
145.0, -9172.2841796875, 17935.21875, -13235.5625, 134147.828125, -187500.015625, -133531.96875, -187500.015625, -187500.015625, -0.1300000101327896, -0.64000004529953, 0.7580000162124634, 192.0, 0.0, 0.0, 0.0, 0.0, 0.0, 0.0, 0.0, 0.0, 0.0, 1.6137596878108478E9, 2021-02-19 16:34:47.810
146.0, -8988.708984375, 17781.7734375, -13389.3427734375, 133984.59375, -187500.015625, -131864.765625, -187500.015625, -187500.015625, -0.12800000607967377, -0.64000004529953, 0.7620000243186951, 192.0, 252.0, 0.0, 236.0, 0.0, 23.0, 208.0, 0.0, 0.0, 0.0, 1.613759687814792E9, 2021-02-19 16:34:47.814
147.0, -9352.796875, 17942.572265625, -13234.51171875, 134130.21875, -187500.015625, -132012.703125, -187500.015625, -187500.015625, -0.12800000607967377, -0.64000004529953, 0.7620000243186951, 192.0, 0.0, 0.0, 0.0, 0.0, 0.0, 0.0, 0.0, 0.0, 0.0, 1.6137596878178253E9, 2021-02-19 16:34:47.817
148.0, -9485.7001953125, 18028.6484375, -13149.75390625, 134224.59375, -187500.015625, -132558.453125, -187500.015625, -187500.015625, -0.12800000607967377, -0.64000004529953, 0.7620000243186951, 192.0, 0.0, 0.0, 0.0, 0.0, 0.0, 0.0, 0.0, 0.0, 0.0, 1.613759687821766E9, 2021-02-19 16:34:47.821
149.0, -9142.6455078125, 17857.5, -13316.54296875, 134065.515625, -187500.015625, -131339.609375, -187500.015625, -187500.015625, -0.12800000607967377, -0.64000004529953, 0.7620000243186951, 192.0, 0.0, 0.0, 0.0, 0.0, 0.0, 0.0, 0.0, 0.0, 0.0, 1.613759687842964E9, 2021-02-19 16:34:47.842
150.0, -8890.8974609375, 17733.560546875, -13436.974609375, 133936.921875, -187500.015625, -129447.3046875, -187500.015625, -187500.015625, -0.12800000607967377, -0.64000004529953, 0.7620000243186951, 192.0, 0.0, 0.0, 0.0, 0.0, 0.0, 0.0, 0.0, 0.0, 0.0, 1.613759687849814E9, 2021-02-19 16:34:47.849
151.0, -9215.5341796875, 17915.279296875, -13262.7646484375, 134099.6875, -187500.015625, -129446.96875, -187500.015625, -187500.015625, -0.12800000607967377, -0.64000004529953, 0.7620000243186951, 192.0, 0.0, 0.0, 0.0, 0.0, 0.0, 0.0, 0.0, 0.0, 0.0, 1.6137596878799808E9, 2021-02-19 16:34:47.879
152.0, -9460.4873046875, 18039.51171875, -13138.578125, 134227.421875, -187500.015625, -130492.7890625, -187500.015625, -187500.015625, -0.12800000607967377, -0.64000004529953, 0.7620000243186951, 192.0, 0.0, 0.0, 0.0, 0.0, 0.0, 0.0, 0.0, 0.0, 0.0, 1.613759687890865E9, 2021-02-19 16:34:47.890
153.0, -9245.10546875, 17994.47265625, -13175.1015625, 134192.78125, -187500.015625, -129777.578125, -187500.015625, -187500.015625, -0.12800000607967377, -0.64000004529953, 0.7620000243186951, 192.0, 0.0, 0.0, 0.0, 0.0, 0.0, 0.0, 0.0, 0.0, 0.0, 1.6137596878949952E9, 2021-02-19 16:34:47.894
154.0, -8985.8701171875, 17843.083984375, -13320.611328125, 134043.390625, -187500.015625, -128133.25, -187500.015625, -187500.015625, -0.12800000607967377, -0.64000004529953, 0.7620000243186951, 192.0, 0.0, 0.0, 0.0, 0.0, 0.0, 0.0, 0.0, 0.0, 0.0, 1.6137596878978848E9, 2021-02-19 16:34:47.897
155.0, -9280.466796875, 17908.306640625, -13259.1435546875, 134090.546875, -187500.015625, -128016.390625, -187500.015625, -187500.015625, -0.1300000101327896, -0.64000004529953, 0.7660000324249268, 192.0, 251.0, 240.0, 236.0, 0.0, 23.0, 240.0, 0.0, 0.0, 0.0, 1.6137596879019644E9, 2021-02-19 16:34:47.901
156.0, -9649.716796875, 18151.091796875, -13019.578125, 134333.75, -187500.015625, -129220.8828125, -187500.015625, -187500.015625, -0.1300000101327896, -0.64000004529953, 0.7660000324249268, 192.0, 0.0, 0.0, 0.0, 0.0, 0.0, 0.0, 0.0, 0.0, 0.0, 1.6137596879048805E9, 2021-02-19 16:34:47.904
157.0, -9468.98046875, 18073.798828125, -13088.890625, 134270.25, -187500.015625, -129125.578125, -187500.015625, -187500.015625, -0.1300000101327896, -0.64000004529953, 0.7660000324249268, 192.0, 0.0, 0.0, 0.0, 0.0, 0.0, 0.0, 0.0, 0.0, 0.0, 1.6137596879089837E9, 2021-02-19 16:34:47.908
158.0, -9169.0205078125, 17883.5625, -13272.64453125, 134083.375, -187500.015625, -127603.15625, -187500.015625, -187500.015625, -0.1300000101327896, -0.64000004529953, 0.7660000324249268, 192.0, 0.0, 0.0, 0.0, 0.0, 0.0, 0.0, 0.0, 0.0, 0.0, 1.6137596879159136E9, 2021-02-19 16:34:47.915
181.0, -10123.8642578125, 18364.86328125, -12818.3671875, 134506.515625, -187500.015625, -133225.265625, -187500.015625, -187500.015625, -0.1300000101327896, -0.64000004529953, 0.7660000324249268, 192.0, 0.0, 0.0, 0.0, 0.0, 0.0, 0.0, 0.0, 0.0, 0.0, 1.6137596879219563E9, 2021-02-19 16:34:47.921
160.0, -9806.0224609375, 18158.2890625, -13005.09375, 134337.171875, -187500.015625, -128601.515625, -187500.015625, -187500.015625, -0.1300000101327896, -0.64000004529953, 0.7660000324249268, 192.0, 0.0, 0.0, 0.0, 0.0, 0.0, 0.0, 0.0, 0.0, 0.0, 1.613759687934066E9, 2021-02-19 16:34:47.934
161.0, -9719.7451171875, 18173.822265625, -12983.6806640625, 134363.890625, -187500.015625, -129106.2890625, -187500.015625, -187500.015625, -0.1300000101327896, -0.64000004529953, 0.7660000324249268, 192.0, 0.0, 0.0, 0.0, 0.0, 0.0, 0.0, 0.0, 0.0, 0.0, 1.613759687936901E9, 2021-02-19 16:34:47.936
179.0, -9544.7978515625, 18062.041015625, -13114.1484375, 134223.546875, -187500.015625, -131432.484375, -187500.015625, -187500.015625, -0.1300000101327896, -0.64000004529953, 0.7660000324249268, 192.0, 0.0, 0.0, 0.0, 0.0, 0.0, 0.0, 0.0, 0.0, 0.0, 1.613759687940086E9, 2021-02-19 16:34:47.940
163.0, -9429.6865234375, 18064.12109375, -13086.7451171875, 134240.078125, -187500.015625, -127700.0234375, -187500.015625, -187500.015625, -0.1300000101327896, -0.64000004529953, 0.7660000324249268, 192.0, 0.0, 0.0, 0.0, 0.0, 0.0, 0.0, 0.0, 0.0, 0.0, 1.6137596879439907E9, 2021-02-19 16:34:47.943
177.0, -10117.830078125, 18414.55078125, -12772.1435546875, 134562.140625, -187500.015625, -132659.40625, -187500.015625, -187500.015625, -0.1300000101327896, -0.64000004529953, 0.7660000324249268, 192.0, 0.0, 0.0, 0.0, 0.0, 0.0, 0.0, 0.0, 0.0, 0.0, 1.6137596879469771E9, 2021-02-19 16:34:47.946
165.0, -9855.5322265625, 18320.16015625, -12832.6728515625, 134495.453125, -187500.015625, -129982.8515625, -187500.015625, -187500.015625, -0.1300000101327896, -0.6420000195503235, 0.7620000243186951, 192.0, 251.0, 240.0, 235.0, 240.0, 23.0, 208.0, 0.0, 0.0, 0.0, 1.6137596879500904E9, 2021-02-19 16:34:47.950
166.0, -9507.0234375, 18130.75, -13017.56640625, 134312.8125, -187500.015625, -129065.46875, -187500.015625, -187500.015625, -0.1300000101327896, -0.6420000195503235, 0.7620000243186951, 192.0, 0.0, 0.0, 0.0, 0.0, 0.0, 0.0, 0.0, 0.0, 0.0, 1.6137596879539893E9, 2021-02-19 16:34:47.953
175.0, -9521.8203125, 18020.9375, -13154.4931640625, 134183.640625, -187500.015625, -130364.6015625, -187500.015625, -187500.015625, -0.12800000607967377, -0.6440000534057617, 0.7640000581741333, 192.0, 252.0, 0.0, 235.0, 224.0, 23.0, 224.0, 0.0, 0.0, 0.0, 1.61375968795694E9, 2021-02-19 16:34:47.956
173.0, -10047.6005859375, 18457.599609375, -12724.9150390625, 134610.890625, -187500.015625, -131800.203125, -187500.015625, -187500.015625, -0.12800000607967377, -0.6440000534057617, 0.7640000581741333, 192.0, 0.0, 0.0, 0.0, 0.0, 0.0, 0.0, 0.0, 0.0, 0.0, 1.6137596879599469E9, 2021-02-19 16:34:47.959
184.0, -9688.072265625, 18118.79296875, -13052.345703125, 134262.078125, -187500.015625, -132464.0625, -187500.015625, -187500.015625, -0.12800000607967377, -0.6440000534057617, 0.7640000581741333, 192.0, 0.0, 0.0, 0.0, 0.0, 0.0, 0.0, 0.0, 0.0, 0.0, 1.6137596879639966E9, 2021-02-19 16:34:47.963
170.0, -9657.8974609375, 18120.916015625, -13044.6787109375, 134295.515625, -187500.015625, -130018.53125, -187500.015625, -187500.015625, -0.12800000607967377, -0.6440000534057617, 0.7640000581741333, 192.0, 0.0, 0.0, 0.0, 0.0, 0.0, 0.0, 0.0, 0.0, 0.0, 1.6137596879671288E9, 2021-02-19 16:34:47.967
192.0, -9524.1005859375, 18001.603515625, -13153.2412109375, 134148.578125, -187500.015625, -132996.0, -187500.015625, -187500.015625, -0.12800000607967377, -0.6440000534057617, 0.7640000581741333, 192.0, 0.0, 0.0, 0.0, 0.0, 0.0, 0.0, 0.0, 0.0, 0.0, 1.6137596879699533E9, 2021-02-19 16:34:47.969
182.0, -9932.9365234375, 18297.583984375, -12878.4931640625, 134454.96875, -187500.015625, -133605.453125, -187500.015625, -187500.015625, -0.12800000607967377, -0.6440000534057617, 0.7640000581741333, 192.0, 0.0, 0.0, 0.0, 0.0, 0.0, 0.0, 0.0, 0.0, 0.0, 1.6137596879739852E9, 2021-02-19 16:34:47.973
196.0, -9469.181640625, 18002.7421875, -13146.4462890625, 134147.90625, -187500.015625, -133403.28125, -187500.015625, -187500.015625, -0.12800000607967377, -0.6440000534057617, 0.7640000581741333, 192.0, 0.0, 0.0, 0.0, 0.0, 0.0, 0.0, 0.0, 0.0, 0.0, 1.6137596879769692E9, 2021-02-19 16:34:47.976
201.0, -9755.462890625, 18092.775390625, -13079.078125, 134210.4375, -187500.015625, -133799.84375, -187500.015625, -187500.015625, -0.12800000607967377, -0.6440000534057617, 0.7640000581741333, 192.0, 0.0, 0.0, 0.0, 0.0, 0.0, 0.0, 0.0, 0.0, 0.0, 1.6137596879800553E9, 2021-02-19 16:34:47.980
187.0, -9601.99609375, 18114.8359375, -13044.1201171875, 134275.625, -187500.015625, -133432.828125, -187500.015625, -187500.015625, -0.12800000607967377, -0.6440000534057617, 0.7640000581741333, 192.0, 0.0, 0.0, 0.0, 0.0, 0.0, 0.0, 0.0, 0.0, 0.0, 1.6137596879842572E9, 2021-02-19 16:34:47.984
204.0, -9473.4736328125, 17994.740234375, -13171.5693359375, 134132.71875, -187500.015625, -133697.421875, -187500.015625, -187500.015625, -0.12800000607967377, -0.6440000534057617, 0.7640000581741333, 192.0, 0.0, 0.0, 0.0, 0.0, 0.0, 0.0, 0.0, 0.0, 0.0, 1.6137596879870641E9, 2021-02-19 16:34:47.987
199.0, -9722.3154296875, 18156.232421875, -13007.8203125, 134295.953125, -187500.015625, -134951.046875, -187500.015625, -187500.015625, -0.12800000607967377, -0.6440000534057617, 0.7640000581741333, 192.0, 0.0, 0.0, 0.0, 0.0, 0.0, 0.0, 0.0, 0.0, 0.0, 1.6137596879899695E9, 2021-02-19 16:34:47.989
197.0, -9834.8115234375, 18184.841796875, -12974.2705078125, 134311.1875, -187500.015625, -134094.90625, -187500.015625, -187500.015625, -0.12800000607967377, -0.6440000534057617, 0.7640000581741333, 192.0, 0.0, 0.0, 0.0, 0.0, 0.0, 0.0, 0.0, 0.0, 0.0, 1.6137596879940224E9, 2021-02-19 16:34:47.994
202.0, -10044.515625, 18282.5859375, -12891.8818359375, 134403.625, -187500.015625, -135145.953125, -187500.015625, -187500.015625, -0.12800000607967377, -0.6440000534057617, 0.7640000581741333, 192.0, 0.0, 0.0, 0.0, 0.0, 0.0, 0.0, 0.0, 0.0, 0.0, 1.613759687997019E9, 2021-02-19 16:34:47.997
205.0, -9660.8037109375, 18065.1484375, -13103.7099609375, 134185.703125, -187500.015625, -133835.875, -187500.015625, -187500.015625, -0.12800000607967377, -0.64000004529953, 0.7580000162124634, 192.0, 252.0, 0.0, 236.0, 0.0, 23.0, 176.0, 0.0, 0.0, 0.0, 1.613759688000249E9, 2021-02-19 16:34:48.000
206.0, -10016.419921875, 18283.525390625, -12890.630859375, 134402.578125, -187500.015625, -135238.078125, -187500.015625, -187500.015625, -0.12800000607967377, -0.64000004529953, 0.7580000162124634, 192.0, 0.0, 0.0, 0.0, 0.0, 0.0, 0.0, 0.0, 0.0, 0.0, 1.6137596880040636E9, 2021-02-19 16:34:48.004
207.0, -9854.2578125, 18221.119140625, -12947.8291015625, 134355.421875, -187500.015625, -135452.125, -187500.015625, -187500.015625, -0.12800000607967377, -0.64000004529953, 0.7580000162124634, 192.0, 0.0, 0.0, 0.0, 0.0, 0.0, 0.0, 0.0, 0.0, 0.0, 1.6137596880070088E9, 2021-02-19 16:34:48.007
208.0, -9495.4677734375, 18018.724609375, -13145.5966796875, 134161.828125, -187500.015625, -134146.203125, -187500.015625, -187500.015625, -0.12800000607967377, -0.64000004529953, 0.7580000162124634, 192.0, 0.0, 0.0, 0.0, 0.0, 0.0, 0.0, 0.0, 0.0, 0.0, 1.6137596880100126E9, 2021-02-19 16:34:48.010
216.0, -9663.0390625, 18045.255859375, -13098.9267578125, 134183.109375, -187500.015625, -134767.765625, -187500.015625, -187500.015625, -0.12800000607967377, -0.64000004529953, 0.7580000162124634, 192.0, 0.0, 0.0, 0.0, 0.0, 0.0, 0.0, 0.0, 0.0, 0.0, 1.6137596880140991E9, 2021-02-19 16:34:48.014
213.0, -9555.52734375, 17999.390625, -13165.1318359375, 134122.4375, -187500.015625, -133494.609375, -187500.015625, -187500.015625, -0.12800000607967377, -0.64000004529953, 0.7580000162124634, 192.0, 0.0, 0.0, 0.0, 0.0, 0.0, 0.0, 0.0, 0.0, 0.0, 1.6137596880170066E9, 2021-02-19 16:34:48.017
211.0, -9925.9619140625, 18228.763671875, -12948.1416015625, 134359.140625, -187500.015625, -135514.84375, -187500.015625, -187500.015625, -0.12800000607967377, -0.64000004529953, 0.7580000162124634, 192.0, 0.0, 0.0, 0.0, 0.0, 0.0, 0.0, 0.0, 0.0, 0.0, 1.6137596880201669E9, 2021-02-19 16:34:48.020
214.0, -9988.3017578125, 18240.85546875, -12923.7109375, 134356.265625, -187500.015625, -134590.796875, -187500.015625, -187500.015625, -0.12800000607967377, -0.6420000195503235, 0.7540000081062317, 192.0, 252.0, 0.0, 235.0, 240.0, 23.0, 144.0, 0.0, 0.0, 0.0, 1.6137596880240092E9, 2021-02-19 16:34:48.024
217.0, -9540.5068359375, 17982.783203125, -13160.9970703125, 134108.984375, -187500.015625, -133629.40625, -187500.015625, -187500.015625, -0.12800000607967377, -0.6420000195503235, 0.7540000081062317, 192.0, 0.0, 0.0, 0.0, 0.0, 0.0, 0.0, 0.0, 0.0, 0.0, 1.6137596880270472E9, 2021-02-19 16:34:48.027
218.0, -9951.287109375, 18170.380859375, -12980.640625, 134283.578125, -187500.015625, -134497.140625, -187500.015625, -187500.015625, -0.12800000607967377, -0.6420000195503235, 0.7540000081062317, 192.0, 0.0, 0.0, 0.0, 0.0, 0.0, 0.0, 0.0, 0.0, 0.0, 1.6137596880380416E9, 2021-02-19 16:34:48.038
219.0, -10084.5478515625, 18245.818359375, -12900.912109375, 134370.09375, -187500.015625, -135630.6875, -187500.015625, -187500.015625, -0.12800000607967377, -0.6420000195503235, 0.7540000081062317, 192.0, 0.0, 0.0, 0.0, 0.0, 0.0, 0.0, 0.0, 0.0, 0.0, 1.613759688041067E9, 2021-02-19 16:34:48.041
220.0, -9764.4931640625, 18075.2734375, -13059.6767578125, 134209.21875, -187500.015625, -134882.921875, -187500.015625, -187500.015625, -0.12800000607967377, -0.6420000195503235, 0.7540000081062317, 192.0, 0.0, 0.0, 0.0, 0.0, 0.0, 0.0, 0.0, 0.0, 0.0, 1.613759688044096E9, 2021-02-19 16:34:48.044
221.0, -9550.9443359375, 17935.77734375, -13194.3232421875, 134062.421875, -187500.015625, -133596.84375, -187500.015625, -187500.015625, -0.12800000607967377, -0.6420000195503235, 0.7540000081062317, 192.0, 0.0, 0.0, 0.0, 0.0, 0.0, 0.0, 0.0, 0.0, 0.0, 1.6137596880590925E9, 2021-02-19 16:34:48.059
222.0, -9917.8037109375, 18136.96484375, -13000.5791015625, 134244.65625, -187500.015625, -134100.765625, -187500.015625, -187500.015625, -0.12800000607967377, -0.6420000195503235, 0.7540000081062317, 192.0, 0.0, 0.0, 0.0, 0.0, 0.0, 0.0, 0.0, 0.0, 0.0, 1.6137596880793397E9, 2021-02-19 16:34:48.079
223.0, -10153.234375, 18251.96484375, -12888.1943359375, 134362.671875, -187500.015625, -135376.515625, -187500.015625, -187500.015625, -0.12800000607967377, -0.6420000195503235, 0.7540000081062317, 192.0, 0.0, 0.0, 0.0, 0.0, 0.0, 0.0, 0.0, 0.0, 0.0, 1.613759688085091E9, 2021-02-19 16:34:48.085
224.0, -9888.232421875, 18120.826171875, -13014.794921875, 134239.28125, -187500.015625, -135026.171875, -187500.015625, -187500.015625, -0.13199999928474426, -0.6440000534057617, 0.7540000081062317, 192.0, 251.0, 224.0, 235.0, 224.0, 23.0, 144.0, 0.0, 0.0, 0.0, 1.6137596880900784E9, 2021-02-19 16:34:48.090
225.0, -9609.23828125, 17990.986328125, -13145.6640625, 134105.640625, -187500.015625, -133737.40625, -187500.015625, -187500.015625, -0.13199999928474426, -0.6440000534057617, 0.7540000081062317, 192.0, 0.0, 0.0, 0.0, 0.0, 0.0, 0.0, 0.0, 0.0, 0.0, 1.6137596881141956E9, 2021-02-19 16:34:48.114
226.0, -9886.310546875, 18106.544921875, -13039.2021484375, 134204.515625, -187500.015625, -134174.703125, -187500.015625, -187500.015625, -0.13199999928474426, -0.6440000534057617, 0.7540000081062317, 192.0, 0.0, 0.0, 0.0, 0.0, 0.0, 0.0, 0.0, 0.0, 0.0, 1.6137596881301627E9, 2021-02-19 16:34:48.130
227.0, -10205.515625, 18278.697265625, -12875.3642578125, 134374.6875, -187500.015625, -135727.640625, -187500.015625, -187500.015625, -0.13199999928474426, -0.6440000534057617, 0.7540000081062317, 192.0, 0.0, 0.0, 0.0, 0.0, 0.0, 0.0, 0.0, 0.0, 0.0, 1.6137596881352844E9, 2021-02-19 16:34:48.135
228.0, -10016.8896484375, 18183.92578125, -12967.6103515625, 134289.25, -187500.015625, -135754.875, -187500.015625, -187500.015625, -0.13199999928474426, -0.6440000534057617, 0.7540000081062317, 192.0, 0.0, 0.0, 0.0, 0.0, 0.0, 0.0, 0.0, 0.0, 0.0, 1.6137596881612647E9, 2021-02-19 16:34:48.161
229.0, -9693.75, 17990.26953125, -13158.4267578125, 134097.125, -187500.015625, -134525.953125, -187500.015625, -187500.015625, -0.13199999928474426, -0.6440000534057617, 0.7540000081062317, 192.0, 0.0, 0.0, 0.0, 0.0, 0.0, 0.0, 0.0, 0.0, 0.0, 1.613759688166319E9, 2021-02-19 16:34:48.166
230.0, -9876.05078125, 18090.0703125, -13067.3876953125, 134174.671875, -187500.015625, -134471.59375, -187500.015625, -187500.015625, -0.13199999928474426, -0.6440000534057617, 0.7540000081062317, 192.0, 0.0, 0.0, 0.0, 0.0, 0.0, 0.0, 0.0, 0.0, 0.0, 1.6137596882102523E9, 2021-02-19 16:34:48.210
231.0, -10246.173828125, 18306.703125, -12858.376953125, 134390.546875, -187500.015625, -135948.375, -187500.015625, -187500.015625, -0.13199999928474426, -0.6440000534057617, 0.7540000081062317, 192.0, 0.0, 0.0, 0.0, 0.0, 0.0, 0.0, 0.0, 0.0, 0.0, 1.6137596882743192E9, 2021-02-19 16:34:48.274
232.0, -10095.2548828125, 18225.052734375, -12937.1220703125, 134324.546875, -187500.015625, -136387.875, -187500.015625, -187500.015625, -0.13199999928474426, -0.6440000534057617, 0.7540000081062317, 192.0, 0.0, 0.0, 0.0, 0.0, 0.0, 0.0, 0.0, 0.0, 0.0, 1.6137596883634398E9, 2021-02-19 16:34:48.363
233.0, -9750.5908203125, 18014.923828125, -13144.255859375, 134117.140625, -187500.015625, -135063.71875, -187500.015625, -187500.015625, -0.13199999928474426, -0.6440000534057617, 0.7540000081062317, 192.0, 0.0, 0.0, 0.0, 0.0, 0.0, 0.0, 0.0, 0.0, 0.0, 1.61375968841651E9, 2021-02-19 16:34:48.416
234.0, -9797.640625, 18024.201171875, -13141.1708984375, 134111.375, -187500.015625, -134617.109375, -187500.015625, -187500.015625, -0.12800000607967377, -0.6420000195503235, 0.7560000419616699, 192.0, 252.0, 0.0, 235.0, 240.0, 23.0, 160.0, 0.0, 0.0, 0.0, 1.6137596884425683E9, 2021-02-19 16:34:48.442
61.0, -9666.927734375, 18071.00390625, -13103.1513671875, 134163.390625, -187500.015625, -142499.25, -187500.015625, -187500.015625, -0.12800000607967377, -0.6420000195503235, 0.7560000419616699, 192.0, 0.0, 0.0, 0.0, 0.0, 0.0, 0.0, 0.0, 0.0, 0.0, 1.6137596886567647E9, 2021-02-19 16:34:48.656
62.0, -10009.1328125, 18238.10546875, -12945.4375, 134311.09375, -187500.015625, -143055.390625, -187500.015625, -187500.015625, -0.12800000607967377, -0.6420000195503235, 0.7560000419616699, 192.0, 0.0, 0.0, 0.0, 0.0, 0.0, 0.0, 0.0, 0.0, 0.0, 1.613759688711888E9, 2021-02-19 16:34:48.711
63.0, -10231.7119140625, 18364.6171875, -12818.3896484375, 134444.484375, -187500.015625, -144367.140625, -187500.015625, -187500.015625, -0.12800000607967377, -0.6420000195503235, 0.7560000419616699, 192.0, 0.0, 0.0, 0.0, 0.0, 0.0, 0.0, 0.0, 0.0, 0.0, 1.613759688799929E9, 2021-02-19 16:34:48.799
64.0, -9949.4765625, 18235.87109375, -12941.48046875, 134328.171875, -187500.015625, -144168.671875, -187500.015625, -187500.015625, -0.12800000607967377, -0.6420000195503235, 0.7560000419616699, 192.0, 0.0, 0.0, 0.0, 0.0, 0.0, 0.0, 0.0, 0.0, 0.0, 1.61375968881596E9, 2021-02-19 16:34:48.815
127.0, -9718.11328125, 17986.291015625, -13191.7529296875, 134081.09375, -187500.015625, -139992.859375, -187500.015625, -187500.015625, -0.12800000607967377, -0.6420000195503235, 0.7560000419616699, 192.0, 0.0, 0.0, 0.0, 0.0, 0.0, 0.0, 0.0, 0.0, 0.0, 1.6137596888761384E9, 2021-02-19 16:34:48.876
66.0, -9930.857421875, 18169.419921875, -13016.26953125, 134242.625, -187500.015625, -143528.390625, -187500.015625, -187500.015625, -0.12800000607967377, -0.6420000195503235, 0.7560000419616699, 192.0, 0.0, 0.0, 0.0, 0.0, 0.0, 0.0, 0.0, 0.0, 0.0, 1.6137596888960347E9, 2021-02-19 16:34:48.896
171.0, -10063.8505859375, 18260.501953125, -12916.8935546875, 134347.53125, -187500.015625, -139767.828125, -187500.015625, -187500.015625, -0.12800000607967377, -0.6420000195503235, 0.7560000419616699, 192.0, 0.0, 0.0, 0.0, 0.0, 0.0, 0.0, 0.0, 0.0, 0.0, 1.6137596889510815E9, 2021-02-19 16:34:48.951
103.0, -9594.1953125, 17926.61328125, -13243.005859375, 134015.4375, -187500.015625, -140731.703125, -187500.015625, -187500.015625, -0.12800000607967377, -0.6420000195503235, 0.7560000419616699, 192.0, 0.0, 0.0, 0.0, 0.0, 0.0, 0.0, 0.0, 0.0, 0.0, 1.6137596890642612E9, 2021-02-19 16:34:49.064
123.0, -9625.4208984375, 17977.037109375, -13198.7490234375, 134068.859375, -187500.015625, -140187.609375, -187500.015625, -187500.015625, -0.12800000607967377, -0.6420000195503235, 0.7560000419616699, 192.0, 0.0, 0.0, 0.0, 0.0, 0.0, 0.0, 0.0, 0.0, 0.0, 1.6137596890902448E9, 2021-02-19 16:34:49.090
70.0, -9829.2236328125, 18189.693359375, -12996.6005859375, 134264.4375, -187500.015625, -144029.40625, -187500.015625, -187500.015625, -0.12800000607967377, -0.6420000195503235, 0.7560000419616699, 192.0, 0.0, 0.0, 0.0, 0.0, 0.0, 0.0, 0.0, 0.0, 0.0, 1.6137596891103027E9, 2021-02-19 16:34:49.110
169.0, -9611.607421875, 18007.01171875, -13157.3759765625, 134118.015625, -187500.015625, -139063.546875, -187500.015625, -187500.015625, -0.12800000607967377, -0.6420000195503235, 0.7560000419616699, 192.0, 0.0, 0.0, 0.0, 0.0, 0.0, 0.0, 0.0, 0.0, 0.0, 1.6137596891263397E9, 2021-02-19 16:34:49.126
154.0, -9960.763671875, 18120.693359375, -13061.15234375, 134198.78125, -187500.015625, -139320.984375, -187500.015625, -187500.015625, -0.12800000607967377, -0.6420000195503235, 0.7560000419616699, 192.0, 0.0, 0.0, 0.0, 0.0, 0.0, 0.0, 0.0, 0.0, 0.0, 1.61375968917437E9, 2021-02-19 16:34:49.174
73.0, -9727.7919921875, 18083.857421875, -13092.01953125, 134182.171875, -187500.015625, -144817.140625, -187500.015625, -187500.015625, -0.12800000607967377, -0.6420000195503235, 0.7560000419616699, 192.0, 0.0, 0.0, 0.0, 0.0, 0.0, 0.0, 0.0, 0.0, 0.0, 1.6137596891855435E9, 2021-02-19 16:34:49.185
232.0, -9535.5, 17850.6171875, -13317.1015625, 133987.28125, -187500.015625, -134151.09375, -187500.015625, -187500.015625, -0.12800000607967377, -0.6420000195503235, 0.7560000419616699, 192.0, 0.0, 0.0, 0.0, 0.0, 0.0, 0.0, 0.0, 0.0, 0.0, 1.6137596892017288E9, 2021-02-19 16:34:49.201
152.0, -9669.095703125, 18048.162109375, -13128.900390625, 134149.53125, -187500.015625, -139558.34375, -187500.015625, -187500.015625, -0.12800000607967377, -0.6420000195503235, 0.7560000419616699, 192.0, 0.0, 0.0, 0.0, 0.0, 0.0, 0.0, 0.0, 0.0, 0.0, 1.6137596892364032E9, 2021-02-19 16:34:49.236
