%OpenBCI Raw EEG Data
%Number of channels = 8
%Sample Rate = 250 Hz
%Board = OpenBCI_GUI$BoardCytonSerial
Sample Index, EXG Channel 0, EXG Channel 1, EXG Channel 2, EXG Channel 3, EXG Channel 4, EXG Channel 5, EXG Channel 6, EXG Channel 7, Accel Channel 0, Accel Channel 1, Accel Channel 2, Other, Other, Other, Other, Other, Other, Other, Analog Channel 0, Analog Channel 1, Analog Channel 2, Timestamp, Timestamp (Formatted)
107.0, -23328.91796875, 352.5540466308594, -17842.66015625, 118934.0546875, 0.0, 0.0, 0.0, 0.0, 0.0, 0.0, 0.0, 192.0, 0.0, 0.0, 0.0, 0.0, 0.0, 0.0, 0.0, 0.0, 0.0, 1.613758549181553E9, 2021-02-19 16:15:49.181
108.0, -23573.2890625, 342.9204406738281, -17879.25, 118893.2421875, 0.0, 0.0, 0.0, 0.0, 0.0, 0.0, 0.0, 192.0, 0.0, 0.0, 0.0, 0.0, 0.0, 0.0, 0.0, 0.0, 0.0, 1.6137585491815572E9, 2021-02-19 16:15:49.181
109.0, -23629.8828125, 359.70660400390625, -17877.70703125, 118903.2265625, 0.0, 0.0, 0.0, 0.0, 0.0, 0.0, 0.0, 192.0, 0.0, 0.0, 0.0, 0.0, 0.0, 0.0, 0.0, 0.0, 0.0, 1.6137585491815605E9, 2021-02-19 16:15:49.181
110.0, -23413.09375, 368.5355529785156, -17845.744140625, 118944.421875, 0.0, 0.0, 0.0, 0.0, 0.0, 0.0, 0.0, 192.0, 0.0, 0.0, 0.0, 0.0, 0.0, 0.0, 0.0, 0.0, 0.0, 1.613758549181564E9, 2021-02-19 16:15:49.181
0.0, 0.0, 0.0, 0.0, 0.0, 0.0, 0.0, 0.0, 0.0, 0.0, 0.0, 0.0, 192.0, 0.0, 0.0, 0.0, 0.0, 0.0, 0.0, 0.0, 0.0, 0.0, 1.6137585492260768E9, 2021-02-19 16:15:49.226
1.0, -21293.478515625, 5847.23828125, -17330.916015625, 128923.203125, 0.0, 0.0, 0.0, 0.0, -0.14800000190734863, -0.6520000100135803, 0.7500000596046448, 192.0, 251.0, 96.0, 235.0, 160.0, 23.0, 112.0, 0.0, 0.0, 0.0, 1.6137585492470076E9, 2021-02-19 16:15:49.247
2.0, -21303.423828125, 5851.91015625, -17324.3671875, 128925.328125, 0.0, 0.0, 0.0, 0.0, -0.14800000190734863, -0.6520000100135803, 0.7500000596046448, 192.0, 0.0, 0.0, 0.0, 0.0, 0.0, 0.0, 0.0, 0.0, 0.0, 1.6137585492510028E9, 2021-02-19 16:15:49.251
3.0, -21423.966796875, 5853.474609375, -17325.41796875, 128920.6796875, 0.0, 0.0, 0.0, 0.0, -0.14800000190734863, -0.6520000100135803, 0.7500000596046448, 192.0, 0.0, 0.0, 0.0, 0.0, 0.0, 0.0, 0.0, 0.0, 0.0, 1.6137585492551908E9, 2021-02-19 16:15:49.255
4.0, -21400.20703125, 5846.724609375, -17331.095703125, 128915.3359375, 0.0, 0.0, 0.0, 0.0, -0.14800000190734863, -0.6520000100135803, 0.7500000596046448, 192.0, 0.0, 0.0, 0.0, 0.0, 0.0, 0.0, 0.0, 0.0, 0.0, 1.613758549259034E9, 2021-02-19 16:15:49.259
5.0, -21306.017578125, 5845.115234375, -17328.30078125, 128920.875, 0.0, 0.0, 0.0, 0.0, -0.14800000190734863, -0.6520000100135803, 0.7500000596046448, 192.0, 0.0, 0.0, 0.0, 0.0, 0.0, 0.0, 0.0, 0.0, 0.0, 1.6137585492641153E9, 2021-02-19 16:15:49.264
6.0, -21296.16015625, 5843.2822265625, -17327.80859375, 128917.6171875, 0.0, 0.0, 0.0, 0.0, -0.14800000190734863, -0.6520000100135803, 0.7500000596046448, 192.0, 0.0, 0.0, 0.0, 0.0, 0.0, 0.0, 0.0, 0.0, 0.0, 1.613758549268051E9, 2021-02-19 16:15:49.268
7.0, -21424.458984375, 5841.58349609375, -17333.8671875, 128907.046875, 0.0, 0.0, 0.0, 0.0, -0.14800000190734863, -0.6520000100135803, 0.7500000596046448, 192.0, 0.0, 0.0, 0.0, 0.0, 0.0, 0.0, 0.0, 0.0, 0.0, 1.6137585492710712E9, 2021-02-19 16:15:49.271
8.0, -21420.748046875, 5849.048828125, -17328.099609375, 128917.796875, 0.0, 0.0, 0.0, 0.0, -0.1420000046491623, -0.6500000357627869, 0.7520000338554382, 192.0, 251.0, 144.0, 235.0, 176.0, 23.0, 128.0, 0.0, 0.0, 0.0, 1.613758549275123E9, 2021-02-19 16:15:49.275
9.0, -21320.970703125, 5845.36083984375, -17329.0390625, 128918.625, 0.0, 0.0, 0.0, 0.0, -0.1420000046491623, -0.6500000357627869, 0.7520000338554382, 192.0, 0.0, 0.0, 0.0, 0.0, 0.0, 0.0, 0.0, 0.0, 0.0, 1.613758549301134E9, 2021-02-19 16:15:49.301
10.0, -21278.7265625, 5846.724609375, -17324.30078125, 128922.3515625, 0.0, 0.0, 0.0, 0.0, -0.1420000046491623, -0.6500000357627869, 0.7520000338554382, 192.0, 0.0, 0.0, 0.0, 0.0, 0.0, 0.0, 0.0, 0.0, 0.0, 1.6137585493052013E9, 2021-02-19 16:15:49.305
11.0, -21398.93359375, 5845.74072265625, -17325.595703125, 128916.3203125, 0.0, 0.0, 0.0, 0.0, -0.1420000046491623, -0.6500000357627869, 0.7520000338554382, 192.0, 0.0, 0.0, 0.0, 0.0, 0.0, 0.0, 0.0, 0.0, 0.0, 1.6137585493101487E9, 2021-02-19 16:15:49.310
12.0, -21434.96484375, 5846.5009765625, -17324.568359375, 128915.78125, 0.0, 0.0, 0.0, 0.0, -0.1420000046491623, -0.6500000357627869, 0.7520000338554382, 192.0, 0.0, 0.0, 0.0, 0.0, 0.0, 0.0, 0.0, 0.0, 0.0, 1.613758549314361E9, 2021-02-19 16:15:49.314
13.0, -21338.337890625, 5840.4658203125, -17326.982421875, 128913.6171875, 0.0, 0.0, 0.0, 0.0, -0.1420000046491623, -0.6500000357627869, 0.7520000338554382, 192.0, 0.0, 0.0, 0.0, 0.0, 0.0, 0.0, 0.0, 0.0, 0.0, 1.6137585493191545E9, 2021-02-19 16:15:49.319
14.0, -21280.8046875, 5844.22119140625, -17320.142578125, 128919.9375, 0.0, 0.0, 0.0, 0.0, -0.1420000046491623, -0.6500000357627869, 0.7520000338554382, 192.0, 0.0, 0.0, 0.0, 0.0, 0.0, 0.0, 0.0, 0.0, 0.0, 1.61375854932318E9, 2021-02-19 16:15:49.323
15.0, -21373.33984375, 5848.892578125, -17319.44921875, 128916.8984375, 0.0, 0.0, 0.0, 0.0, -0.1420000046491623, -0.6500000357627869, 0.7520000338554382, 192.0, 0.0, 0.0, 0.0, 0.0, 0.0, 0.0, 0.0, 0.0, 0.0, 1.6137585493271532E9, 2021-02-19 16:15:49.327
16.0, -21437.021484375, 5853.4521484375, -17319.60546875, 128920.4765625, 0.0, 0.0, 0.0, 0.0, -0.1420000046491623, -0.6500000357627869, 0.7520000338554382, 192.0, 0.0, 0.0, 0.0, 0.0, 0.0, 0.0, 0.0, 0.0, 0.0, 1.6137585493311653E9, 2021-02-19 16:15:49.331
17.0, -21340.328125, 5858.302734375, -17314.107421875, 128931.8125, 0.0, 0.0, 0.0, 0.0, -0.1420000046491623, -0.6500000357627869, 0.7520000338554382, 192.0, 0.0, 0.0, 0.0, 0.0, 0.0, 0.0, 0.0, 0.0, 0.0, 1.6137585493351395E9, 2021-02-19 16:15:49.335
18.0, -21272.109375, 5850.255859375, -17320.1875, 128925.28125, 0.0, 0.0, 0.0, 0.0, -0.14000000059604645, -0.6360000371932983, 0.7620000243186951, 192.0, 251.0, 160.0, 236.0, 32.0, 23.0, 208.0, 0.0, 0.0, 0.0, 1.6137585493402147E9, 2021-02-19 16:15:49.340
19.0, -21345.580078125, 5850.6806640625, -17321.6171875, 128918.3515625, 0.0, 0.0, 0.0, 0.0, -0.14000000059604645, -0.6360000371932983, 0.7620000243186951, 192.0, 0.0, 0.0, 0.0, 0.0, 0.0, 0.0, 0.0, 0.0, 0.0, 1.613758549344164E9, 2021-02-19 16:15:49.344
20.0, -21438.607421875, 5852.3125, -17322.333984375, 128915.0703125, 0.0, 0.0, 0.0, 0.0, -0.14000000059604645, -0.6360000371932983, 0.7620000243186951, 192.0, 0.0, 0.0, 0.0, 0.0, 0.0, 0.0, 0.0, 0.0, 0.0, 1.613758549348282E9, 2021-02-19 16:15:49.348
21.0, -21361.71875, 5855.1064453125, -17317.103515625, 128923.5390625, 0.0, 0.0, 0.0, 0.0, -0.14000000059604645, -0.6360000371932983, 0.7620000243186951, 192.0, 0.0, 0.0, 0.0, 0.0, 0.0, 0.0, 0.0, 0.0, 0.0, 1.6137585493693628E9, 2021-02-19 16:15:49.369
22.0, -21276.892578125, 5853.4970703125, -17314.80078125, 128924.703125, 0.0, 0.0, 0.0, 0.0, -0.14000000059604645, -0.6360000371932983, 0.7620000243186951, 192.0, 0.0, 0.0, 0.0, 0.0, 0.0, 0.0, 0.0, 0.0, 0.0, 1.6137585493733256E9, 2021-02-19 16:15:49.373
23.0, -21322.490234375, 5846.634765625, -17321.529296875, 128916.2109375, 0.0, 0.0, 0.0, 0.0, -0.14000000059604645, -0.6360000371932983, 0.7620000243186951, 192.0, 0.0, 0.0, 0.0, 0.0, 0.0, 0.0, 0.0, 0.0, 0.0, 1.6137585493941753E9, 2021-02-19 16:15:49.394
24.0, -21442.7421875, 5844.15380859375, -17328.591796875, 128911.734375, 0.0, 0.0, 0.0, 0.0, -0.14000000059604645, -0.6360000371932983, 0.7620000243186951, 192.0, 0.0, 0.0, 0.0, 0.0, 0.0, 0.0, 0.0, 0.0, 0.0, 1.6137585494143057E9, 2021-02-19 16:15:49.414
25.0, -21398.798828125, 5837.33642578125, -17336.52734375, 128909.6796875, 0.0, 0.0, 0.0, 0.0, -0.14000000059604645, -0.6360000371932983, 0.7620000243186951, 192.0, 0.0, 0.0, 0.0, 0.0, 0.0, 0.0, 0.0, 0.0, 0.0, 1.6137585494193945E9, 2021-02-19 16:15:49.419
26.0, -21309.90625, 5827.63623046875, -17342.650390625, 128908.2734375, 0.0, 0.0, 0.0, 0.0, -0.14000000059604645, -0.6360000371932983, 0.7620000243186951, 192.0, 0.0, 0.0, 0.0, 0.0, 0.0, 0.0, 0.0, 0.0, 0.0, 1.613758549423214E9, 2021-02-19 16:15:49.423
27.0, -21329.083984375, 5826.33984375, -17341.80078125, 128907.21875, 0.0, 0.0, 0.0, 0.0, -0.1380000114440918, -0.6320000290870667, 0.7660000324249268, 192.0, 251.0, 176.0, 236.0, 64.0, 23.0, 240.0, 0.0, 0.0, 0.0, 1.6137585494272535E9, 2021-02-19 16:15:49.427
28.0, -21443.904296875, 5835.7275390625, -17335.498046875, 128910.3046875, 0.0, 0.0, 0.0, 0.0, -0.1380000114440918, -0.6320000290870667, 0.7660000324249268, 192.0, 0.0, 0.0, 0.0, 0.0, 0.0, 0.0, 0.0, 0.0, 0.0, 1.6137585494442816E9, 2021-02-19 16:15:49.444
29.0, -21416.546875, 5835.1015625, -17337.33203125, 128913.03125, 0.0, 0.0, 0.0, 0.0, -0.1380000114440918, -0.6320000290870667, 0.7660000324249268, 192.0, 0.0, 0.0, 0.0, 0.0, 0.0, 0.0, 0.0, 0.0, 0.0, 1.6137585494492671E9, 2021-02-19 16:15:49.449
30.0, -21316.74609375, 5836.509765625, -17335.38671875, 128921.078125, 0.0, 0.0, 0.0, 0.0, -0.1380000114440918, -0.6320000290870667, 0.7660000324249268, 192.0, 0.0, 0.0, 0.0, 0.0, 0.0, 0.0, 0.0, 0.0, 0.0, 1.61375854945332E9, 2021-02-19 16:15:49.453
31.0, -21298.529296875, 5829.98291015625, -17342.650390625, 128917.4140625, 0.0, 0.0, 0.0, 0.0, -0.1380000114440918, -0.6320000290870667, 0.7660000324249268, 192.0, 0.0, 0.0, 0.0, 0.0, 0.0, 0.0, 0.0, 0.0, 0.0, 1.6137585494733229E9, 2021-02-19 16:15:49.473
32.0, -21420.8828125, 5833.42529296875, -17345.869140625, 128911.1796875, 0.0, 0.0, 0.0, 0.0, -0.1380000114440918, -0.6320000290870667, 0.7660000324249268, 192.0, 0.0, 0.0, 0.0, 0.0, 0.0, 0.0, 0.0, 0.0, 0.0, 1.6137585494783E9, 2021-02-19 16:15:49.478
33.0, -21429.353515625, 5837.33642578125, -17343.478515625, 128910.9765625, 0.0, 0.0, 0.0, 0.0, -0.1380000114440918, -0.6320000290870667, 0.7660000324249268, 192.0, 0.0, 0.0, 0.0, 0.0, 0.0, 0.0, 0.0, 0.0, 0.0, 1.613758549498479E9, 2021-02-19 16:15:49.498
34.0, -21332.19140625, 5831.1005859375, -17348.216796875, 128907.21875, 0.0, 0.0, 0.0, 0.0, -0.1380000114440918, -0.6320000290870667, 0.7660000324249268, 192.0, 0.0, 0.0, 0.0, 0.0, 0.0, 0.0, 0.0, 0.0, 0.0, 1.6137585495023005E9, 2021-02-19 16:15:49.502
35.0, -21296.71875, 5824.0595703125, -17353.37890625, 128904.203125, 0.0, 0.0, 0.0, 0.0, -0.1380000114440918, -0.6320000290870667, 0.7660000324249268, 192.0, 0.0, 0.0, 0.0, 0.0, 0.0, 0.0, 0.0, 0.0, 0.0, 1.6137585495074E9, 2021-02-19 16:15:49.507
36.0, -21409.169921875, 5825.244140625, -17354.498046875, 128903.9609375, 0.0, 0.0, 0.0, 0.0, -0.1380000114440918, -0.6320000290870667, 0.7660000324249268, 192.0, 0.0, 0.0, 0.0, 0.0, 0.0, 0.0, 0.0, 0.0, 0.0, 1.6137585495234232E9, 2021-02-19 16:15:49.523
37.0, -21440.462890625, 5834.095703125, -17348.439453125, 128912.359375, 0.0, 0.0, 0.0, 0.0, -0.13600000739097595, -0.6300000548362732, 0.7660000324249268, 192.0, 251.0, 192.0, 236.0, 80.0, 23.0, 240.0, 0.0, 0.0, 0.0, 1.6137585495283484E9, 2021-02-19 16:15:49.528
38.0, -21347.63671875, 5829.55810546875, -17348.841796875, 128910.9765625, 0.0, 0.0, 0.0, 0.0, -0.13600000739097595, -0.6300000548362732, 0.7660000324249268, 192.0, 0.0, 0.0, 0.0, 0.0, 0.0, 0.0, 0.0, 0.0, 0.0, 1.6137585495353718E9, 2021-02-19 16:15:49.535
39.0, -21283.755859375, 5830.720703125, -17342.337890625, 128917.4609375, 0.0, 0.0, 0.0, 0.0, -0.13600000739097595, -0.6300000548362732, 0.7660000324249268, 192.0, 0.0, 0.0, 0.0, 0.0, 0.0, 0.0, 0.0, 0.0, 0.0, 1.6137585495403569E9, 2021-02-19 16:15:49.540
40.0, -21370.30078125, 5834.20751953125, -17338.91796875, 128917.7734375, 0.0, 0.0, 0.0, 0.0, -0.13600000739097595, -0.6300000548362732, 0.7660000324249268, 192.0, 0.0, 0.0, 0.0, 0.0, 0.0, 0.0, 0.0, 0.0, 0.0, 1.6137585495433629E9, 2021-02-19 16:15:49.543
41.0, -21438.00390625, 5844.60107421875, -17330.73828125, 128925.8203125, 0.0, 0.0, 0.0, 0.0, -0.13600000739097595, -0.6300000548362732, 0.7660000324249268, 192.0, 0.0, 0.0, 0.0, 0.0, 0.0, 0.0, 0.0, 0.0, 0.0, 1.613758549547371E9, 2021-02-19 16:15:49.547
42.0, -21348.9765625, 5848.62451171875, -17324.076171875, 128935.296875, 0.0, 0.0, 0.0, 0.0, -0.13600000739097595, -0.6300000548362732, 0.7660000324249268, 192.0, 0.0, 0.0, 0.0, 0.0, 0.0, 0.0, 0.0, 0.0, 0.0, 1.6137585495515368E9, 2021-02-19 16:15:49.551
43.0, -21278.45703125, 5842.16455078125, -17327.33984375, 128931.4296875, 0.0, 0.0, 0.0, 0.0, -0.13600000739097595, -0.6300000548362732, 0.7660000324249268, 192.0, 0.0, 0.0, 0.0, 0.0, 0.0, 0.0, 0.0, 0.0, 0.0, 1.6137585495543633E9, 2021-02-19 16:15:49.554
44.0, -21335.611328125, 5844.0419921875, -17324.9921875, 128928.5703125, 0.0, 0.0, 0.0, 0.0, -0.13600000739097595, -0.6300000548362732, 0.7660000324249268, 192.0, 0.0, 0.0, 0.0, 0.0, 0.0, 0.0, 0.0, 0.0, 0.0, 1.6137585495583906E9, 2021-02-19 16:15:49.558
45.0, -21436.685546875, 5845.8525390625, -17327.51953125, 128921.484375, 0.0, 0.0, 0.0, 0.0, -0.13600000739097595, -0.6300000548362732, 0.7660000324249268, 192.0, 0.0, 0.0, 0.0, 0.0, 0.0, 0.0, 0.0, 0.0, 0.0, 1.6137585495614116E9, 2021-02-19 16:15:49.561
46.0, -21366.9921875, 5849.13818359375, -17325.171875, 128927.15625, 0.0, 0.0, 0.0, 0.0, -0.13600000739097595, -0.6300000548362732, 0.7660000324249268, 192.0, 0.0, 0.0, 0.0, 0.0, 0.0, 0.0, 0.0, 0.0, 0.0, 1.613758549564486E9, 2021-02-19 16:15:49.564
47.0, -21288.740234375, 5839.34814453125, -17331.341796875, 128922.21875, 0.0, 0.0, 0.0, 0.0, -0.1380000114440918, -0.6300000548362732, 0.7680000066757202, 192.0, 251.0, 176.0, 236.0, 80.0, 24.0, 0.0, 0.0, 0.0, 0.0, 1.6137585495974135E9, 2021-02-19 16:15:49.597
48.0, -21321.015625, 5836.2412109375, -17333.0625, 128921.484375, 0.0, 0.0, 0.0, 0.0, -0.1380000114440918, -0.6300000548362732, 0.7680000066757202, 192.0, 0.0, 0.0, 0.0, 0.0, 0.0, 0.0, 0.0, 0.0, 0.0, 1.6137585496074488E9, 2021-02-19 16:15:49.607
49.0, -21430.337890625, 5843.908203125, -17329.12890625, 128927.8046875, 0.0, 0.0, 0.0, 0.0, -0.1380000114440918, -0.6300000548362732, 0.7680000066757202, 192.0, 0.0, 0.0, 0.0, 0.0, 0.0, 0.0, 0.0, 0.0, 0.0, 1.613758549611444E9, 2021-02-19 16:15:49.611
50.0, -21388.294921875, 5837.515625, -17335.498046875, 128926.46875, 0.0, 0.0, 0.0, 0.0, -0.1380000114440918, -0.6300000548362732, 0.7680000066757202, 192.0, 0.0, 0.0, 0.0, 0.0, 0.0, 0.0, 0.0, 0.0, 0.0, 1.6137585496144567E9, 2021-02-19 16:15:49.614
62.0, -21431.521484375, 5853.2734375, -17310.77734375, 128942.8984375, 0.0, 0.0, 0.0, 0.0, -0.1380000114440918, -0.6300000548362732, 0.7680000066757202, 192.0, 0.0, 0.0, 0.0, 0.0, 0.0, 0.0, 0.0, 0.0, 0.0, 1.613758549618516E9, 2021-02-19 16:15:49.618
52.0, -21297.1875, 5834.6767578125, -17331.453125, 128928.9453125, 0.0, 0.0, 0.0, 0.0, -0.1380000114440918, -0.6300000548362732, 0.7680000066757202, 192.0, 0.0, 0.0, 0.0, 0.0, 0.0, 0.0, 0.0, 0.0, 0.0, 1.6137585496215992E9, 2021-02-19 16:15:49.621
53.0, -21423.69921875, 5838.81201171875, -17330.669921875, 128926.3515625, 0.0, 0.0, 0.0, 0.0, -0.1380000114440918, -0.6300000548362732, 0.7680000066757202, 192.0, 0.0, 0.0, 0.0, 0.0, 0.0, 0.0, 0.0, 0.0, 0.0, 1.6137585496255617E9, 2021-02-19 16:15:49.625
54.0, -21407.2265625, 5841.650390625, -17327.205078125, 128930.359375, 0.0, 0.0, 0.0, 0.0, -0.1380000114440918, -0.6300000548362732, 0.7680000066757202, 192.0, 0.0, 0.0, 0.0, 0.0, 0.0, 0.0, 0.0, 0.0, 0.0, 1.613758549630479E9, 2021-02-19 16:15:49.630
55.0, -21306.107421875, 5843.259765625, -17321.7734375, 128931.921875, 0.0, 0.0, 0.0, 0.0, -0.1380000114440918, -0.6300000548362732, 0.7680000066757202, 192.0, 0.0, 0.0, 0.0, 0.0, 0.0, 0.0, 0.0, 0.0, 0.0, 1.613758549642656E9, 2021-02-19 16:15:49.642
68.0, -21278.61328125, 5842.09765625, -17323.7421875, 128933.0859375, 0.0, 0.0, 0.0, 0.0, -0.1380000114440918, -0.6300000548362732, 0.7680000066757202, 192.0, 0.0, 0.0, 0.0, 0.0, 0.0, 0.0, 0.0, 0.0, 0.0, 1.613758549649497E9, 2021-02-19 16:15:49.649
60.0, -21277.00390625, 5843.61767578125, -17314.912109375, 128937.21875, 0.0, 0.0, 0.0, 0.0, -0.1380000114440918, -0.6300000548362732, 0.7680000066757202, 192.0, 0.0, 0.0, 0.0, 0.0, 0.0, 0.0, 0.0, 0.0, 0.0, 1.6137585496525247E9, 2021-02-19 16:15:49.652
66.0, -21439.033203125, 5844.8916015625, -17318.443359375, 128934.1796875, 0.0, 0.0, 0.0, 0.0, -0.1380000114440918, -0.6300000548362732, 0.7680000066757202, 192.0, 0.0, 0.0, 0.0, 0.0, 0.0, 0.0, 0.0, 0.0, 0.0, 1.61375854965652E9, 2021-02-19 16:15:49.656
63.0, -21331.20703125, 5856.78271484375, -17303.87109375, 128953.578125, 0.0, 0.0, 0.0, 0.0, -0.1380000114440918, -0.6300000548362732, 0.7680000066757202, 192.0, 0.0, 0.0, 0.0, 0.0, 0.0, 0.0, 0.0, 0.0, 0.0, 1.6137585496595445E9, 2021-02-19 16:15:49.659
76.0, -21296.47265625, 5844.53369140625, -17340.68359375, 128933.7734375, 0.0, 0.0, 0.0, 0.0, -0.1380000114440918, -0.6300000548362732, 0.7680000066757202, 192.0, 0.0, 0.0, 0.0, 0.0, 0.0, 0.0, 0.0, 0.0, 0.0, 1.6137585496625288E9, 2021-02-19 16:15:49.662
69.0, -21331.140625, 5842.09765625, -17326.154296875, 128932.4140625, 0.0, 0.0, 0.0, 0.0, -0.1380000114440918, -0.6300000548362732, 0.7680000066757202, 192.0, 0.0, 0.0, 0.0, 0.0, 0.0, 0.0, 0.0, 0.0, 0.0, 1.6137585496665363E9, 2021-02-19 16:15:49.666
73.0, -21301.14453125, 5850.34521484375, -17326.04296875, 128943.4765625, 0.0, 0.0, 0.0, 0.0, -0.1380000114440918, -0.6300000548362732, 0.7680000066757202, 192.0, 0.0, 0.0, 0.0, 0.0, 0.0, 0.0, 0.0, 0.0, 0.0, 1.6137585496695445E9, 2021-02-19 16:15:49.669
71.0, -21367.283203125, 5850.2783203125, -17326.7578125, 128939.296875, 0.0, 0.0, 0.0, 0.0, -0.1380000114440918, -0.6300000548362732, 0.7680000066757202, 192.0, 0.0, 0.0, 0.0, 0.0, 0.0, 0.0, 0.0, 0.0, 0.0, 1.6137585496727655E9, 2021-02-19 16:15:49.672
74.0, -21423.1171875, 5852.40185546875, -17331.966796875, 128939.296875, 0.0, 0.0, 0.0, 0.0, -0.1380000114440918, -0.6300000548362732, 0.7680000066757202, 192.0, 0.0, 0.0, 0.0, 0.0, 0.0, 0.0, 0.0, 0.0, 0.0, 1.6137585496765637E9, 2021-02-19 16:15:49.676
77.0, -21295.556640625, 5836.17431640625, -17348.015625, 128925.546875, 0.0, 0.0, 0.0, 0.0, -0.14600001275539398, -0.6380000114440918, 0.7600000500679016, 192.0, 251.0, 112.0, 236.0, 16.0, 23.0, 192.0, 0.0, 0.0, 0.0, 1.613758549679701E9, 2021-02-19 16:15:49.679
78.0, -21421.28515625, 5838.40966796875, -17349.22265625, 128926.734375, 0.0, 0.0, 0.0, 0.0, -0.14600001275539398, -0.6380000114440918, 0.7600000500679016, 192.0, 0.0, 0.0, 0.0, 0.0, 0.0, 0.0, 0.0, 0.0, 0.0, 1.613758549682554E9, 2021-02-19 16:15:49.682
79.0, -21415.630859375, 5838.81201171875, -17347.12109375, 128929.75, 0.0, 0.0, 0.0, 0.0, -0.14600001275539398, -0.6380000114440918, 0.7600000500679016, 192.0, 0.0, 0.0, 0.0, 0.0, 0.0, 0.0, 0.0, 0.0, 0.0, 1.6137585496855435E9, 2021-02-19 16:15:49.685
80.0, -21313.080078125, 5835.50390625, -17345.19921875, 128934.671875, 0.0, 0.0, 0.0, 0.0, -0.14600001275539398, -0.6380000114440918, 0.7600000500679016, 192.0, 0.0, 0.0, 0.0, 0.0, 0.0, 0.0, 0.0, 0.0, 0.0, 1.6137585496896007E9, 2021-02-19 16:15:49.689
92.0, -21383.2421875, 5830.38525390625, -17339.185546875, 128928.1171875, 0.0, 0.0, 0.0, 0.0, -0.14600001275539398, -0.6380000114440918, 0.7600000500679016, 192.0, 0.0, 0.0, 0.0, 0.0, 0.0, 0.0, 0.0, 0.0, 0.0, 1.6137585496925824E9, 2021-02-19 16:15:49.692
82.0, -21411.31640625, 5825.75830078125, -17351.033203125, 128924.65625, 0.0, 0.0, 0.0, 0.0, -0.14600001275539398, -0.6380000114440918, 0.7600000500679016, 192.0, 0.0, 0.0, 0.0, 0.0, 0.0, 0.0, 0.0, 0.0, 0.0, 1.6137585496956823E9, 2021-02-19 16:15:49.695
83.0, -21427.6328125, 5838.02978515625, -17341.310546875, 128936.1640625, 0.0, 0.0, 0.0, 0.0, -0.14600001275539398, -0.6380000114440918, 0.7600000500679016, 192.0, 0.0, 0.0, 0.0, 0.0, 0.0, 0.0, 0.0, 0.0, 0.0, 1.6137585496987417E9, 2021-02-19 16:15:49.698
95.0, -21466.546875, 5819.2763671875, -17357.73828125, 128915.515625, 0.0, 0.0, 0.0, 0.0, -0.14600001275539398, -0.6380000114440918, 0.7600000500679016, 192.0, 0.0, 0.0, 0.0, 0.0, 0.0, 0.0, 0.0, 0.0, 0.0, 1.613758549702576E9, 2021-02-19 16:15:49.702
88.0, -21357.29296875, 5825.62451171875, -17344.595703125, 128926.0859375, 0.0, 0.0, 0.0, 0.0, -0.14600001275539398, -0.6380000114440918, 0.7600000500679016, 192.0, 0.0, 0.0, 0.0, 0.0, 0.0, 0.0, 0.0, 0.0, 0.0, 1.613758549705754E9, 2021-02-19 16:15:49.705
86.0, -21372.87109375, 5834.76611328125, -17338.224609375, 128936.1875, 0.0, 0.0, 0.0, 0.0, -0.14600001275539398, -0.6380000114440918, 0.7600000500679016, 192.0, 0.0, 0.0, 0.0, 0.0, 0.0, 0.0, 0.0, 0.0, 0.0, 1.6137585497086563E9, 2021-02-19 16:15:49.708
93.0, -21306.84375, 5820.64013671875, -17348.193359375, 128922.578125, 0.0, 0.0, 0.0, 0.0, -0.14600001275539398, -0.6380000114440918, 0.7600000500679016, 192.0, 0.0, 0.0, 0.0, 0.0, 0.0, 0.0, 0.0, 0.0, 0.0, 1.6137585497376137E9, 2021-02-19 16:15:49.737
96.0, -21391.78125, 5835.34716796875, -17343.58984375, 128936.28125, 0.0, 0.0, 0.0, 0.0, -0.1380000114440918, -0.6300000548362732, 0.7660000324249268, 192.0, 251.0, 176.0, 236.0, 80.0, 23.0, 240.0, 0.0, 0.0, 0.0, 1.6137585497627575E9, 2021-02-19 16:15:49.762
97.0, -21283.59765625, 5847.39501953125, -17329.57421875, 128953.828125, 0.0, 0.0, 0.0, 0.0, -0.1380000114440918, -0.6300000548362732, 0.7660000324249268, 192.0, 0.0, 0.0, 0.0, 0.0, 0.0, 0.0, 0.0, 0.0, 0.0, 1.6137585497676375E9, 2021-02-19 16:15:49.767
98.0, -21293.8125, 5845.56201171875, -17334.380859375, 128950.8046875, 0.0, 0.0, 0.0, 0.0, -0.1380000114440918, -0.6300000548362732, 0.7660000324249268, 192.0, 0.0, 0.0, 0.0, 0.0, 0.0, 0.0, 0.0, 0.0, 0.0, 1.613758549772709E9, 2021-02-19 16:15:49.772
105.0, -21315.8515625, 5839.41552734375, -17347.2109375, 128944.3671875, 0.0, 0.0, 0.0, 0.0, -0.1380000114440918, -0.6300000548362732, 0.7660000324249268, 192.0, 0.0, 0.0, 0.0, 0.0, 0.0, 0.0, 0.0, 0.0, 0.0, 1.6137585497766576E9, 2021-02-19 16:15:49.776
100.0, -21380.046875, 5855.35205078125, -17333.93359375, 128957.46875, 0.0, 0.0, 0.0, 0.0, -0.1380000114440918, -0.6300000548362732, 0.7660000324249268, 192.0, 0.0, 0.0, 0.0, 0.0, 0.0, 0.0, 0.0, 0.0, 0.0, 1.61375854978082E9, 2021-02-19 16:15:49.780
101.0, -21289.4765625, 5846.03173828125, -17341.287109375, 128951.03125, 0.0, 0.0, 0.0, 0.0, -0.1380000114440918, -0.6300000548362732, 0.7660000324249268, 192.0, 0.0, 0.0, 0.0, 0.0, 0.0, 0.0, 0.0, 0.0, 0.0, 1.613758549787714E9, 2021-02-19 16:15:49.787
102.0, -21288.42578125, 5830.38525390625, -17355.056640625, 128935.34375, 0.0, 0.0, 0.0, 0.0, -0.1380000114440918, -0.6300000548362732, 0.7660000324249268, 192.0, 0.0, 0.0, 0.0, 0.0, 0.0, 0.0, 0.0, 0.0, 0.0, 1.6137585497927065E9, 2021-02-19 16:15:49.792
106.0, -21277.205078125, 5837.671875, -17344.193359375, 128947.9921875, 0.0, 0.0, 0.0, 0.0, -0.14000000059604645, -0.6320000290870667, 0.7660000324249268, 192.0, 251.0, 160.0, 236.0, 64.0, 23.0, 240.0, 0.0, 0.0, 0.0, 1.6137585498137105E9, 2021-02-19 16:15:49.813
107.0, -21394.44140625, 5839.81787109375, -17340.19140625, 128947.453125, 0.0, 0.0, 0.0, 0.0, -0.14000000059604645, -0.6320000290870667, 0.7660000324249268, 192.0, 0.0, 0.0, 0.0, 0.0, 0.0, 0.0, 0.0, 0.0, 0.0, 1.6137585498187027E9, 2021-02-19 16:15:49.818
108.0, -21433.087890625, 5839.482421875, -17340.392578125, 128947.453125, 0.0, 0.0, 0.0, 0.0, -0.14000000059604645, -0.6320000290870667, 0.7660000324249268, 192.0, 0.0, 0.0, 0.0, 0.0, 0.0, 0.0, 0.0, 0.0, 0.0, 1.6137585498237853E9, 2021-02-19 16:15:49.823
109.0, -21334.068359375, 5838.36474609375, -17337.62109375, 128950.515625, 0.0, 0.0, 0.0, 0.0, -0.14000000059604645, -0.6320000290870667, 0.7660000324249268, 192.0, 0.0, 0.0, 0.0, 0.0, 0.0, 0.0, 0.0, 0.0, 0.0, 1.6137585498278055E9, 2021-02-19 16:15:49.827
110.0, -21281.02734375, 5831.16748046875, -17339.185546875, 128945.171875, 0.0, 0.0, 0.0, 0.0, -0.14000000059604645, -0.6320000290870667, 0.7660000324249268, 192.0, 0.0, 0.0, 0.0, 0.0, 0.0, 0.0, 0.0, 0.0, 0.0, 1.61375854983072E9, 2021-02-19 16:15:49.830
111.0, -21379.95703125, 5833.00048828125, -17338.380859375, 128941.7578125, 0.0, 0.0, 0.0, 0.0, -0.14000000059604645, -0.6320000290870667, 0.7660000324249268, 192.0, 0.0, 0.0, 0.0, 0.0, 0.0, 0.0, 0.0, 0.0, 0.0, 1.613758549833886E9, 2021-02-19 16:15:49.833
112.0, -21445.537109375, 5836.97900390625, -17341.130859375, 128944.953125, 0.0, 0.0, 0.0, 0.0, -0.14000000059604645, -0.6320000290870667, 0.7660000324249268, 192.0, 0.0, 0.0, 0.0, 0.0, 0.0, 0.0, 0.0, 0.0, 0.0, 1.613758549837732E9, 2021-02-19 16:15:49.837
113.0, -21354.185546875, 5838.9013671875, -17340.68359375, 128954.984375, 0.0, 0.0, 0.0, 0.0, -0.14000000059604645, -0.6320000290870667, 0.7660000324249268, 192.0, 0.0, 0.0, 0.0, 0.0, 0.0, 0.0, 0.0, 0.0, 0.0, 1.6137585498407264E9, 2021-02-19 16:15:49.840
114.0, -21282.189453125, 5827.099609375, -17350.921875, 128950.515625, 0.0, 0.0, 0.0, 0.0, -0.14000000059604645, -0.6320000290870667, 0.7660000324249268, 192.0, 0.0, 0.0, 0.0, 0.0, 0.0, 0.0, 0.0, 0.0, 0.0, 1.613758549843764E9, 2021-02-19 16:15:49.843
115.0, -21348.5078125, 5825.84765625, -17353.267578125, 128950.140625, 0.0, 0.0, 0.0, 0.0, -0.14000000059604645, -0.6320000290870667, 0.7660000324249268, 192.0, 0.0, 0.0, 0.0, 0.0, 0.0, 0.0, 0.0, 0.0, 0.0, 1.6137585498477733E9, 2021-02-19 16:15:49.847
116.0, -21443.458984375, 5827.81494140625, -17355.8828125, 128948.7265625, 0.0, 0.0, 0.0, 0.0, -0.13600000739097595, -0.6320000290870667, 0.7680000066757202, 192.0, 251.0, 192.0, 236.0, 64.0, 24.0, 0.0, 0.0, 0.0, 0.0, 1.6137585498508203E9, 2021-02-19 16:15:49.850
117.0, -21374.525390625, 5825.3115234375, -17355.2578125, 128951.765625, 0.0, 0.0, 0.0, 0.0, -0.13600000739097595, -0.6320000290870667, 0.7680000066757202, 192.0, 0.0, 0.0, 0.0, 0.0, 0.0, 0.0, 0.0, 0.0, 0.0, 1.6137585498538916E9, 2021-02-19 16:15:49.853
118.0, -21289.365234375, 5820.259765625, -17355.390625, 128952.3046875, 0.0, 0.0, 0.0, 0.0, -0.13600000739097595, -0.6320000290870667, 0.7680000066757202, 192.0, 0.0, 0.0, 0.0, 0.0, 0.0, 0.0, 0.0, 0.0, 0.0, 1.6137585498577552E9, 2021-02-19 16:15:49.857
134.0, -21330.224609375, 5842.20947265625, -17354.296875, 128979.8671875, 0.0, 0.0, 0.0, 0.0, -0.13600000739097595, -0.6320000290870667, 0.7680000066757202, 192.0, 0.0, 0.0, 0.0, 0.0, 0.0, 0.0, 0.0, 0.0, 0.0, 1.6137585498607912E9, 2021-02-19 16:15:49.860
120.0, -21447.861328125, 5817.8681640625, -17363.259765625, 128943.8359375, 0.0, 0.0, 0.0, 0.0, -0.13600000739097595, -0.6320000290870667, 0.7680000066757202, 192.0, 0.0, 0.0, 0.0, 0.0, 0.0, 0.0, 0.0, 0.0, 0.0, 1.6137585498637836E9, 2021-02-19 16:15:49.863
132.0, -21379.64453125, 5839.3037109375, -17358.453125, 128971.328125, 0.0, 0.0, 0.0, 0.0, -0.13600000739097595, -0.6320000290870667, 0.7680000066757202, 192.0, 0.0, 0.0, 0.0, 0.0, 0.0, 0.0, 0.0, 0.0, 0.0, 1.613758549866952E9, 2021-02-19 16:15:49.866
122.0, -21302.53125, 5818.20361328125, -17360.2421875, 128952.9765625, 0.0, 0.0, 0.0, 0.0, -0.13600000739097595, -0.6320000290870667, 0.7680000066757202, 192.0, 0.0, 0.0, 0.0, 0.0, 0.0, 0.0, 0.0, 0.0, 0.0, 1.613758549870814E9, 2021-02-19 16:15:49.870
123.0, -21308.07421875, 5820.908203125, -17357.380859375, 128954.4921875, 0.0, 0.0, 0.0, 0.0, -0.13600000739097595, -0.6320000290870667, 0.7680000066757202, 192.0, 0.0, 0.0, 0.0, 0.0, 0.0, 0.0, 0.0, 0.0, 0.0, 1.613758549873819E9, 2021-02-19 16:15:49.873
130.0, -21307.671875, 5846.56787109375, -17346.16015625, 128981.96875, 0.0, 0.0, 0.0, 0.0, -0.13600000739097595, -0.6320000290870667, 0.7680000066757202, 192.0, 0.0, 0.0, 0.0, 0.0, 0.0, 0.0, 0.0, 0.0, 0.0, 1.6137585498767729E9, 2021-02-19 16:15:49.876
127.0, -21280.46875, 5838.96826171875, -17348.775390625, 128971.8828125, 0.0, 0.0, 0.0, 0.0, -0.13600000739097595, -0.6320000290870667, 0.7680000066757202, 192.0, 0.0, 0.0, 0.0, 0.0, 0.0, 0.0, 0.0, 0.0, 0.0, 1.6137585498818731E9, 2021-02-19 16:15:49.881
128.0, -21399.134765625, 5844.3330078125, -17348.171875, 128974.765625, 0.0, 0.0, 0.0, 0.0, -0.13600000739097595, -0.6320000290870667, 0.7680000066757202, 192.0, 0.0, 0.0, 0.0, 0.0, 0.0, 0.0, 0.0, 0.0, 0.0, 1.6137585498968108E9, 2021-02-19 16:15:49.896
135.0, -21265.60546875, 5844.265625, -17346.205078125, 128988.9375, 0.0, 0.0, 0.0, 0.0, -0.13600000739097595, -0.6320000290870667, 0.7680000066757202, 192.0, 0.0, 0.0, 0.0, 0.0, 0.0, 0.0, 0.0, 0.0, 0.0, 1.61375854989987E9, 2021-02-19 16:15:49.899
136.0, -21353.783203125, 5838.4990234375, -17354.20703125, 128981.0078125, 0.0, 0.0, 0.0, 0.0, -0.1340000033378601, -0.6300000548362732, 0.7660000324249268, 192.0, 251.0, 208.0, 236.0, 80.0, 23.0, 240.0, 0.0, 0.0, 0.0, 1.6137585499039023E9, 2021-02-19 16:15:49.903
147.0, -21293.76953125, 5837.1357421875, -17353.15625, 129000.4921875, 0.0, 0.0, 0.0, 0.0, -0.1340000033378601, -0.6300000548362732, 0.7660000324249268, 192.0, 0.0, 0.0, 0.0, 0.0, 0.0, 0.0, 0.0, 0.0, 0.0, 1.613758549907411E9, 2021-02-19 16:15:49.907
145.0, -21440.59765625, 5828.95458984375, -17359.52734375, 128984.203125, 0.0, 0.0, 0.0, 0.0, -0.1340000033378601, -0.6300000548362732, 0.7660000324249268, 192.0, 0.0, 0.0, 0.0, 0.0, 0.0, 0.0, 0.0, 0.0, 0.0, 1.613758549917858E9, 2021-02-19 16:15:49.917
139.0, -21279.462890625, 5833.5146484375, -17354.4296875, 128980.46875, 0.0, 0.0, 0.0, 0.0, -0.1340000033378601, -0.6300000548362732, 0.7660000324249268, 192.0, 0.0, 0.0, 0.0, 0.0, 0.0, 0.0, 0.0, 0.0, 0.0, 1.613758549920838E9, 2021-02-19 16:15:49.920
140.0, -21342.697265625, 5829.1337890625, -17356.150390625, 128974.390625, 0.0, 0.0, 0.0, 0.0, -0.1340000033378601, -0.6300000548362732, 0.7660000324249268, 192.0, 0.0, 0.0, 0.0, 0.0, 0.0, 0.0, 0.0, 0.0, 0.0, 1.61375854992593E9, 2021-02-19 16:15:49.925
143.0, -21284.11328125, 5833.3359375, -17349.736328125, 128992.4296875, 0.0, 0.0, 0.0, 0.0, -0.1340000033378601, -0.6300000548362732, 0.7660000324249268, 192.0, 0.0, 0.0, 0.0, 0.0, 0.0, 0.0, 0.0, 0.0, 0.0, 1.6137585499298444E9, 2021-02-19 16:15:49.929
148.0, -21293.478515625, 5832.37451171875, -17358.38671875, 128997.0546875, 0.0, 0.0, 0.0, 0.0, -0.1340000033378601, -0.6300000548362732, 0.7660000324249268, 192.0, 0.0, 0.0, 0.0, 0.0, 0.0, 0.0, 0.0, 0.0, 0.0, 1.613758549932828E9, 2021-02-19 16:15:49.932
149.0, -21418.15625, 5834.20751953125, -17362.56640625, 128996.0703125, 0.0, 0.0, 0.0, 0.0, -0.1340000033378601, -0.6300000548362732, 0.7660000324249268, 192.0, 0.0, 0.0, 0.0, 0.0, 0.0, 0.0, 0.0, 0.0, 0.0, 1.613758549936858E9, 2021-02-19 16:15:49.936
150.0, -21403.158203125, 5842.3212890625, -17357.9609375, 129006.796875, 0.0, 0.0, 0.0, 0.0, -0.1340000033378601, -0.6300000548362732, 0.7660000324249268, 192.0, 0.0, 0.0, 0.0, 0.0, 0.0, 0.0, 0.0, 0.0, 0.0, 1.6137585499400897E9, 2021-02-19 16:15:49.940
151.0, -21300.138671875, 5842.20947265625, -17352.775390625, 129013.5703125, 0.0, 0.0, 0.0, 0.0, -0.1340000033378601, -0.6300000548362732, 0.7660000324249268, 192.0, 0.0, 0.0, 0.0, 0.0, 0.0, 0.0, 0.0, 0.0, 0.0, 1.6137585499468908E9, 2021-02-19 16:15:49.946
152.0, -21274.1875, 5836.0400390625, -17355.390625, 129008.765625, 0.0, 0.0, 0.0, 0.0, -0.1340000033378601, -0.6300000548362732, 0.7660000324249268, 192.0, 0.0, 0.0, 0.0, 0.0, 0.0, 0.0, 0.0, 0.0, 0.0, 1.6137585499508486E9, 2021-02-19 16:15:49.950
153.0, -21394.6640625, 5834.76611328125, -17359.951171875, 129001.609375, 0.0, 0.0, 0.0, 0.0, -0.1340000033378601, -0.6300000548362732, 0.7660000324249268, 192.0, 0.0, 0.0, 0.0, 0.0, 0.0, 0.0, 0.0, 0.0, 0.0, 1.6137585499539073E9, 2021-02-19 16:15:49.953
154.0, -21420.97265625, 5836.4423828125, -17361.0234375, 129003.984375, 0.0, 0.0, 0.0, 0.0, -0.1340000033378601, -0.6300000548362732, 0.7660000324249268, 192.0, 0.0, 0.0, 0.0, 0.0, 0.0, 0.0, 0.0, 0.0, 0.0, 1.6137585499578767E9, 2021-02-19 16:15:49.957
155.0, -21326.939453125, 5828.91015625, -17366.8359375, 129002.84375, 0.0, 0.0, 0.0, 0.0, -0.13199999928474426, -0.6380000114440918, 0.7600000500679016, 192.0, 251.0, 224.0, 236.0, 16.0, 23.0, 192.0, 0.0, 0.0, 0.0, 1.61375854996094E9, 2021-02-19 16:15:49.960
156.0, -21274.30078125, 5832.1064453125, -17362.72265625, 129007.734375, 0.0, 0.0, 0.0, 0.0, -0.13199999928474426, -0.6380000114440918, 0.7600000500679016, 192.0, 0.0, 0.0, 0.0, 0.0, 0.0, 0.0, 0.0, 0.0, 0.0, 1.6137585499639263E9, 2021-02-19 16:15:49.963
157.0, -21373.541015625, 5834.20751953125, -17364.265625, 129006.2421875, 0.0, 0.0, 0.0, 0.0, -0.13199999928474426, -0.6380000114440918, 0.7600000500679016, 192.0, 0.0, 0.0, 0.0, 0.0, 0.0, 0.0, 0.0, 0.0, 0.0, 1.613758549977942E9, 2021-02-19 16:15:49.977
158.0, -21426.962890625, 5835.34716796875, -17368.4453125, 129009.125, 0.0, 0.0, 0.0, 0.0, -0.13199999928474426, -0.6380000114440918, 0.7600000500679016, 192.0, 0.0, 0.0, 0.0, 0.0, 0.0, 0.0, 0.0, 0.0, 0.0, 1.6137585499890993E9, 2021-02-19 16:15:49.989
159.0, -21335.0078125, 5832.44140625, -17368.2890625, 129012.8359375, 0.0, 0.0, 0.0, 0.0, -0.13199999928474426, -0.6380000114440918, 0.7600000500679016, 192.0, 0.0, 0.0, 0.0, 0.0, 0.0, 0.0, 0.0, 0.0, 0.0, 1.6137585499950097E9, 2021-02-19 16:15:49.995
160.0, -21267.9296875, 5830.58642578125, -17365.427734375, 129015.40625, 0.0, 0.0, 0.0, 0.0, -0.13199999928474426, -0.6380000114440918, 0.7600000500679016, 192.0, 0.0, 0.0, 0.0, 0.0, 0.0, 0.0, 0.0, 0.0, 0.0, 1.6137585499979796E9, 2021-02-19 16:15:49.997
161.0, -21346.541015625, 5829.87109375, -17365.203125, 129011.828125, 0.0, 0.0, 0.0, 0.0, -0.13199999928474426, -0.6380000114440918, 0.7600000500679016, 192.0, 0.0, 0.0, 0.0, 0.0, 0.0, 0.0, 0.0, 0.0, 0.0, 1.613758550002238E9, 2021-02-19 16:15:50.002
162.0, -21434.361328125, 5829.20068359375, -17370.27734375, 129009.8359375, 0.0, 0.0, 0.0, 0.0, -0.13199999928474426, -0.6380000114440918, 0.7600000500679016, 192.0, 0.0, 0.0, 0.0, 0.0, 0.0, 0.0, 0.0, 0.0, 0.0, 1.6137585500049477E9, 2021-02-19 16:15:50.004
163.0, -21361.5390625, 5821.9140625, -17377.072265625, 129006.3515625, 0.0, 0.0, 0.0, 0.0, -0.13199999928474426, -0.6380000114440918, 0.7600000500679016, 192.0, 0.0, 0.0, 0.0, 0.0, 0.0, 0.0, 0.0, 0.0, 0.0, 1.6137585500119712E9, 2021-02-19 16:15:50.011
164.0, -21281.54296875, 5820.3271484375, -17375.083984375, 129007.8515625, 0.0, 0.0, 0.0, 0.0, -0.13199999928474426, -0.6380000114440918, 0.7600000500679016, 192.0, 0.0, 0.0, 0.0, 0.0, 0.0, 0.0, 0.0, 0.0, 0.0, 1.6137585500150092E9, 2021-02-19 16:15:50.015
165.0, -21336.728515625, 5814.1357421875, -17379.330078125, 129002.8203125, 0.0, 0.0, 0.0, 0.0, -0.1340000033378601, -0.6360000371932983, 0.7660000324249268, 192.0, 251.0, 208.0, 236.0, 32.0, 23.0, 240.0, 0.0, 0.0, 0.0, 1.6137585500190947E9, 2021-02-19 16:15:50.019
166.0, -21448.375, 5815.23095703125, -17382.66015625, 128999.4921875, 0.0, 0.0, 0.0, 0.0, -0.1340000033378601, -0.6360000371932983, 0.7660000324249268, 192.0, 0.0, 0.0, 0.0, 0.0, 0.0, 0.0, 0.0, 0.0, 0.0, 1.613758550022149E9, 2021-02-19 16:15:50.022
167.0, -21383.623046875, 5820.79638671875, -17376.849609375, 129011.3125, 0.0, 0.0, 0.0, 0.0, -0.1340000033378601, -0.6360000371932983, 0.7660000324249268, 192.0, 0.0, 0.0, 0.0, 0.0, 0.0, 0.0, 0.0, 0.0, 0.0, 1.6137585500259547E9, 2021-02-19 16:15:50.025
173.0, -21295.69140625, 5815.1416015625, -17373.072265625, 129030.2421875, 0.0, 0.0, 0.0, 0.0, -0.1340000033378601, -0.6360000371932983, 0.7660000324249268, 192.0, 0.0, 0.0, 0.0, 0.0, 0.0, 0.0, 0.0, 0.0, 0.0, 1.613758550028974E9, 2021-02-19 16:15:50.028
169.0, -21310.62109375, 5822.20458984375, -17370.1875, 129024.3671875, 0.0, 0.0, 0.0, 0.0, -0.1340000033378601, -0.6360000371932983, 0.7660000324249268, 192.0, 0.0, 0.0, 0.0, 0.0, 0.0, 0.0, 0.0, 0.0, 0.0, 1.6137585500319743E9, 2021-02-19 16:15:50.031
170.0, -21433.734375, 5823.12109375, -17372.625, 129020.078125, 0.0, 0.0, 0.0, 0.0, -0.1340000033378601, -0.6360000371932983, 0.7660000324249268, 192.0, 0.0, 0.0, 0.0, 0.0, 0.0, 0.0, 0.0, 0.0, 0.0, 1.613758550035988E9, 2021-02-19 16:15:50.035
171.0, -21401.03515625, 5823.2998046875, -17373.7421875, 129025.0625, 0.0, 0.0, 0.0, 0.0, -0.1340000033378601, -0.6360000371932983, 0.7660000324249268, 192.0, 0.0, 0.0, 0.0, 0.0, 0.0, 0.0, 0.0, 0.0, 0.0, 1.61375855003914E9, 2021-02-19 16:15:50.039
174.0, -21418.826171875, 5821.4892578125, -17371.931640625, 129029.0859375, 0.0, 0.0, 0.0, 0.0, -0.1340000033378601, -0.6360000371932983, 0.7660000324249268, 192.0, 0.0, 0.0, 0.0, 0.0, 0.0, 0.0, 0.0, 0.0, 0.0, 1.6137585500421145E9, 2021-02-19 16:15:50.042
175.0, -21419.765625, 5819.544921875, -17378.4140625, 129023.140625, 0.0, 0.0, 0.0, 0.0, -0.1340000033378601, -0.6380000114440918, 0.7640000581741333, 192.0, 251.0, 208.0, 236.0, 16.0, 23.0, 224.0, 0.0, 0.0, 0.0, 1.6137585500449736E9, 2021-02-19 16:15:50.044
176.0, -21330.6484375, 5813.19677734375, -17383.15234375, 129021.28125, 0.0, 0.0, 0.0, 0.0, -0.1340000033378601, -0.6380000114440918, 0.7640000581741333, 192.0, 0.0, 0.0, 0.0, 0.0, 0.0, 0.0, 0.0, 0.0, 0.0, 1.6137585500650089E9, 2021-02-19 16:15:50.065
177.0, -21292.31640625, 5817.130859375, -17376.1328125, 129030.5390625, 0.0, 0.0, 0.0, 0.0, -0.1340000033378601, -0.6380000114440918, 0.7640000581741333, 192.0, 0.0, 0.0, 0.0, 0.0, 0.0, 0.0, 0.0, 0.0, 0.0, 1.613758550072155E9, 2021-02-19 16:15:50.072
178.0, -21407.2265625, 5819.25390625, -17374.2109375, 129032.328125, 0.0, 0.0, 0.0, 0.0, -0.1340000033378601, -0.6380000114440918, 0.7640000581741333, 192.0, 0.0, 0.0, 0.0, 0.0, 0.0, 0.0, 0.0, 0.0, 0.0, 1.6137585500830176E9, 2021-02-19 16:15:50.083
179.0, -21437.9375, 5817.22021484375, -17378.8828125, 129032.953125, 0.0, 0.0, 0.0, 0.0, -0.1340000033378601, -0.6380000114440918, 0.7640000581741333, 192.0, 0.0, 0.0, 0.0, 0.0, 0.0, 0.0, 0.0, 0.0, 0.0, 1.6137585500860476E9, 2021-02-19 16:15:50.086
180.0, -21341.53515625, 5812.66015625, -17381.20703125, 129036.1484375, 0.0, 0.0, 0.0, 0.0, -0.1340000033378601, -0.6380000114440918, 0.7640000581741333, 192.0, 0.0, 0.0, 0.0, 0.0, 0.0, 0.0, 0.0, 0.0, 0.0, 1.6137585500902076E9, 2021-02-19 16:15:50.090
181.0, -21292.62890625, 5808.9052734375, -17381.36328125, 129035.6796875, 0.0, 0.0, 0.0, 0.0, -0.1340000033378601, -0.6380000114440918, 0.7640000581741333, 192.0, 0.0, 0.0, 0.0, 0.0, 0.0, 0.0, 0.0, 0.0, 0.0, 1.6137585500980282E9, 2021-02-19 16:15:50.098
182.0, -21392.2734375, 5802.64697265625, -17389.076171875, 129025.5078125, 0.0, 0.0, 0.0, 0.0, -0.1340000033378601, -0.6380000114440918, 0.7640000581741333, 192.0, 0.0, 0.0, 0.0, 0.0, 0.0, 0.0, 0.0, 0.0, 0.0, 1.61375855012416E9, 2021-02-19 16:15:50.124
183.0, -21456.130859375, 5806.22314453125, -17390.23828125, 129025.4609375, 0.0, 0.0, 0.0, 0.0, -0.1340000033378601, -0.6380000114440918, 0.7640000581741333, 192.0, 0.0, 0.0, 0.0, 0.0, 0.0, 0.0, 0.0, 0.0, 0.0, 1.6137585501271472E9, 2021-02-19 16:15:50.127
184.0, -21361.271484375, 5807.5419921875, -17387.95703125, 129031.875, 0.0, 0.0, 0.0, 0.0, -0.1340000033378601, -0.6380000114440918, 0.7640000581741333, 192.0, 0.0, 0.0, 0.0, 0.0, 0.0, 0.0, 0.0, 0.0, 0.0, 1.6137585501302464E9, 2021-02-19 16:15:50.130
188.0, -21379.666015625, 5809.55322265625, -17386.7734375, 129038.1328125, 0.0, 0.0, 0.0, 0.0, -0.1340000033378601, -0.6380000114440918, 0.7640000581741333, 192.0, 0.0, 0.0, 0.0, 0.0, 0.0, 0.0, 0.0, 0.0, 0.0, 1.6137585501333754E9, 2021-02-19 16:15:50.133
191.0, -21451.99609375, 5801.59619140625, -17395.78125, 129036.125, 0.0, 0.0, 0.0, 0.0, -0.1340000033378601, -0.6380000114440918, 0.7640000581741333, 192.0, 0.0, 0.0, 0.0, 0.0, 0.0, 0.0, 0.0, 0.0, 0.0, 1.6137585501371236E9, 2021-02-19 16:15:50.137
189.0, -21297.1875, 5799.5400390625, -17393.544921875, 129033.578125, 0.0, 0.0, 0.0, 0.0, -0.1340000033378601, -0.6380000114440918, 0.7640000581741333, 192.0, 0.0, 0.0, 0.0, 0.0, 0.0, 0.0, 0.0, 0.0, 0.0, 1.6137585501421301E9, 2021-02-19 16:15:50.142
192.0, -21398.3515625, 5806.8935546875, -17391.490234375, 129042.765625, 0.0, 0.0, 0.0, 0.0, -0.1340000033378601, -0.6380000114440918, 0.7640000581741333, 192.0, 0.0, 0.0, 0.0, 0.0, 0.0, 0.0, 0.0, 0.0, 0.0, 1.6137585501461833E9, 2021-02-19 16:15:50.146
193.0, -21296.875, 5810.42529296875, -17385.208984375, 129050.828125, 0.0, 0.0, 0.0, 0.0, -0.1340000033378601, -0.6380000114440918, 0.7640000581741333, 192.0, 0.0, 0.0, 0.0, 0.0, 0.0, 0.0, 0.0, 0.0, 0.0, 1.6137585501492684E9, 2021-02-19 16:15:50.149
194.0, -21308.85546875, 5803.8759765625, -17389.25390625, 129046.515625, 0.0, 0.0, 0.0, 0.0, -0.1340000033378601, -0.6380000114440918, 0.7640000581741333, 192.0, 0.0, 0.0, 0.0, 0.0, 0.0, 0.0, 0.0, 0.0, 0.0, 1.6137585501541317E9, 2021-02-19 16:15:50.154
195.0, -21437.04296875, 5803.7421875, -17393.478515625, 129042.671875, 0.0, 0.0, 0.0, 0.0, -0.13199999928474426, -0.6380000114440918, 0.7600000500679016, 192.0, 251.0, 224.0, 236.0, 16.0, 23.0, 192.0, 0.0, 0.0, 0.0, 1.6137585501581507E9, 2021-02-19 16:15:50.158
196.0, -21417.91015625, 5803.8984375, -17395.556640625, 129043.90625, 0.0, 0.0, 0.0, 0.0, -0.13199999928474426, -0.6380000114440918, 0.7600000500679016, 192.0, 0.0, 0.0, 0.0, 0.0, 0.0, 0.0, 0.0, 0.0, 0.0, 1.6137585501611578E9, 2021-02-19 16:15:50.161
197.0, -21320.92578125, 5802.24462890625, -17392.47265625, 129049.0, 0.0, 0.0, 0.0, 0.0, -0.13199999928474426, -0.6380000114440918, 0.7600000500679016, 192.0, 0.0, 0.0, 0.0, 0.0, 0.0, 0.0, 0.0, 0.0, 0.0, 1.6137585501641293E9, 2021-02-19 16:15:50.164
198.0, -21303.15625, 5801.97607421875, -17388.76171875, 129052.171875, 0.0, 0.0, 0.0, 0.0, -0.13199999928474426, -0.6380000114440918, 0.7600000500679016, 192.0, 0.0, 0.0, 0.0, 0.0, 0.0, 0.0, 0.0, 0.0, 0.0, 1.6137585501682E9, 2021-02-19 16:15:50.168
199.0, -21427.521484375, 5796.65673828125, -17397.568359375, 129042.4921875, 0.0, 0.0, 0.0, 0.0, -0.13199999928474426, -0.6380000114440918, 0.7600000500679016, 192.0, 0.0, 0.0, 0.0, 0.0, 0.0, 0.0, 0.0, 0.0, 0.0, 1.6137585501781223E9, 2021-02-19 16:15:50.178
200.0, -21436.103515625, 5802.1328125, -17395.2890625, 129049.0859375, 0.0, 0.0, 0.0, 0.0, -0.13199999928474426, -0.6380000114440918, 0.7600000500679016, 192.0, 0.0, 0.0, 0.0, 0.0, 0.0, 0.0, 0.0, 0.0, 0.0, 1.6137585501821992E9, 2021-02-19 16:15:50.182
201.0, -21334.896484375, 5799.45068359375, -17397.30078125, 129053.0234375, 0.0, 0.0, 0.0, 0.0, -0.13199999928474426, -0.6380000114440918, 0.7600000500679016, 192.0, 0.0, 0.0, 0.0, 0.0, 0.0, 0.0, 0.0, 0.0, 0.0, 1.6137585501881645E9, 2021-02-19 16:15:50.188
202.0, -21295.04296875, 5796.45556640625, -17398.619140625, 129056.890625, 0.0, 0.0, 0.0, 0.0, -0.13199999928474426, -0.6380000114440918, 0.7600000500679016, 192.0, 0.0, 0.0, 0.0, 0.0, 0.0, 0.0, 0.0, 0.0, 0.0, 1.613758550192222E9, 2021-02-19 16:15:50.192
212.0, -21453.337890625, 5802.22216796875, -17402.173828125, 129074.7890625, 0.0, 0.0, 0.0, 0.0, -0.13199999928474426, -0.6380000114440918, 0.7600000500679016, 192.0, 0.0, 0.0, 0.0, 0.0, 0.0, 0.0, 0.0, 0.0, 0.0, 1.6137585501951563E9, 2021-02-19 16:15:50.195
204.0, -21443.212890625, 5805.95458984375, -17395.19921875, 129067.328125, 0.0, 0.0, 0.0, 0.0, -0.13199999928474426, -0.6380000114440918, 0.7600000500679016, 192.0, 0.0, 0.0, 0.0, 0.0, 0.0, 0.0, 0.0, 0.0, 0.0, 1.6137585501994152E9, 2021-02-19 16:15:50.199
209.0, -21365.49609375, 5807.25146484375, -17395.669921875, 129075.1484375, 0.0, 0.0, 0.0, 0.0, -0.13199999928474426, -0.6380000114440918, 0.7600000500679016, 192.0, 0.0, 0.0, 0.0, 0.0, 0.0, 0.0, 0.0, 0.0, 0.0, 1.613758550202386E9, 2021-02-19 16:15:50.202
226.0, -21365.78515625, 5786.1513671875, -17412.857421875, 129102.5546875, 0.0, 0.0, 0.0, 0.0, -0.13199999928474426, -0.6380000114440918, 0.7600000500679016, 192.0, 0.0, 0.0, 0.0, 0.0, 0.0, 0.0, 0.0, 0.0, 0.0, 1.61375855022121E9, 2021-02-19 16:15:50.221
207.0, -21377.810546875, 5805.708984375, -17393.076171875, 129072.2890625, 0.0, 0.0, 0.0, 0.0, -0.13199999928474426, -0.6380000114440918, 0.7600000500679016, 192.0, 0.0, 0.0, 0.0, 0.0, 0.0, 0.0, 0.0, 0.0, 0.0, 1.6137585502332156E9, 2021-02-19 16:15:50.233
223.0, -21324.166015625, 5782.865234375, -17415.830078125, 129095.375, 0.0, 0.0, 0.0, 0.0, -0.13199999928474426, -0.6380000114440918, 0.7600000500679016, 192.0, 0.0, 0.0, 0.0, 0.0, 0.0, 0.0, 0.0, 0.0, 0.0, 1.6137585502362003E9, 2021-02-19 16:15:50.236
213.0, -21378.81640625, 5808.63720703125, -17394.751953125, 129088.8515625, 0.0, 0.0, 0.0, 0.0, -0.13199999928474426, -0.6380000114440918, 0.7600000500679016, 192.0, 0.0, 0.0, 0.0, 0.0, 0.0, 0.0, 0.0, 0.0, 0.0, 1.6137585502552462E9, 2021-02-19 16:15:50.255
214.0, -21299.759765625, 5801.64111328125, -17396.876953125, 129091.4921875, 0.0, 0.0, 0.0, 0.0, -0.13199999928474426, -0.6380000114440918, 0.7600000500679016, 192.0, 0.0, 0.0, 0.0, 0.0, 0.0, 0.0, 0.0, 0.0, 0.0, 1.6137585502702875E9, 2021-02-19 16:15:50.270
221.0, -21449.494140625, 5783.80419921875, -17416.568359375, 129084.8515625, 0.0, 0.0, 0.0, 0.0, -0.13199999928474426, -0.6380000114440918, 0.7600000500679016, 192.0, 0.0, 0.0, 0.0, 0.0, 0.0, 0.0, 0.0, 0.0, 0.0, 1.6137585502762668E9, 2021-02-19 16:15:50.276
216.0, -21455.125, 5800.5458984375, -17399.423828125, 129088.4296875, 0.0, 0.0, 0.0, 0.0, -0.13199999928474426, -0.6380000114440918, 0.7600000500679016, 192.0, 0.0, 0.0, 0.0, 0.0, 0.0, 0.0, 0.0, 0.0, 0.0, 1.6137585502872777E9, 2021-02-19 16:15:50.287
219.0, -21334.203125, 5789.05712890625, -17404.900390625, 129090.28125, 0.0, 0.0, 0.0, 0.0, -0.13199999928474426, -0.6380000114440918, 0.7600000500679016, 192.0, 0.0, 0.0, 0.0, 0.0, 0.0, 0.0, 0.0, 0.0, 0.0, 1.6137585502903695E9, 2021-02-19 16:15:50.290
227.0, -21314.779296875, 5787.04541015625, -17409.482421875, 129105.234375, 0.0, 0.0, 0.0, 0.0, -0.13199999928474426, -0.6380000114440918, 0.7600000500679016, 192.0, 0.0, 0.0, 0.0, 0.0, 0.0, 0.0, 0.0, 0.0, 0.0, 1.6137585502942977E9, 2021-02-19 16:15:50.294
228.0, -21421.486328125, 5789.19091796875, -17412.076171875, 129104.40625, 0.0, 0.0, 0.0, 0.0, -0.13199999928474426, -0.6380000114440918, 0.7600000500679016, 192.0, 0.0, 0.0, 0.0, 0.0, 0.0, 0.0, 0.0, 0.0, 0.0, 1.6137585503223307E9, 2021-02-19 16:15:50.322
229.0, -21469.296875, 5795.96337890625, -17410.310546875, 129108.078125, 0.0, 0.0, 0.0, 0.0, -0.13199999928474426, -0.6380000114440918, 0.7600000500679016, 192.0, 0.0, 0.0, 0.0, 0.0, 0.0, 0.0, 0.0, 0.0, 0.0, 1.6137585503433428E9, 2021-02-19 16:15:50.343
230.0, -21369.763671875, 5801.126953125, -17405.458984375, 129117.4375, 0.0, 0.0, 0.0, 0.0, -0.13199999928474426, -0.6380000114440918, 0.7600000500679016, 192.0, 0.0, 0.0, 0.0, 0.0, 0.0, 0.0, 0.0, 0.0, 0.0, 1.6137585503473215E9, 2021-02-19 16:15:50.347
231.0, -21299.55859375, 5804.18896484375, -17402.978515625, 129121.3046875, 0.0, 0.0, 0.0, 0.0, -0.13199999928474426, -0.6380000114440918, 0.7600000500679016, 192.0, 0.0, 0.0, 0.0, 0.0, 0.0, 0.0, 0.0, 0.0, 0.0, 1.6137585503513408E9, 2021-02-19 16:15:50.351
232.0, -21383.712890625, 5800.2548828125, -17409.259765625, 129115.765625, 0.0, 0.0, 0.0, 0.0, -0.13199999928474426, -0.6380000114440918, 0.7600000500679016, 192.0, 0.0, 0.0, 0.0, 0.0, 0.0, 0.0, 0.0, 0.0, 0.0, 1.6137585503543313E9, 2021-02-19 16:15:50.354
233.0, -21471.12890625, 5800.00927734375, -17413.55078125, 129115.1796875, 0.0, 0.0, 0.0, 0.0, -0.13199999928474426, -0.6380000114440918, 0.7600000500679016, 192.0, 0.0, 0.0, 0.0, 0.0, 0.0, 0.0, 0.0, 0.0, 0.0, 1.6137585503673575E9, 2021-02-19 16:15:50.367
234.0, -21394.3515625, 5793.3037109375, -17418.423828125, 129116.546875, 0.0, 0.0, 0.0, 0.0, -0.1340000033378601, -0.6440000534057617, 0.7740000486373901, 192.0, 251.0, 208.0, 235.0, 224.0, 24.0, 48.0, 0.0, 0.0, 0.0, 1.6137585503703578E9, 2021-02-19 16:15:50.370
235.0, -21313.3046875, 5789.9287109375, -17417.171875, 129121.5078125, 0.0, 0.0, 0.0, 0.0, -0.1340000033378601, -0.6440000534057617, 0.7740000486373901, 192.0, 0.0, 0.0, 0.0, 0.0, 0.0, 0.0, 0.0, 0.0, 0.0, 1.613758550373522E9, 2021-02-19 16:15:50.373
236.0, -21368.7578125, 5789.99560546875, -17417.306640625, 129120.953125, 0.0, 0.0, 0.0, 0.0, -0.1340000033378601, -0.6440000534057617, 0.7740000486373901, 192.0, 0.0, 0.0, 0.0, 0.0, 0.0, 0.0, 0.0, 0.0, 0.0, 1.6137585503774116E9, 2021-02-19 16:15:50.377
237.0, -21472.537109375, 5796.7236328125, -17417.619140625, 129119.3828125, 0.0, 0.0, 0.0, 0.0, -0.1340000033378601, -0.6440000534057617, 0.7740000486373901, 192.0, 0.0, 0.0, 0.0, 0.0, 0.0, 0.0, 0.0, 0.0, 0.0, 1.613758550423607E9, 2021-02-19 16:15:50.423
238.0, -21412.6796875, 5798.17626953125, -17415.025390625, 129125.1953125, 0.0, 0.0, 0.0, 0.0, -0.1340000033378601, -0.6440000534057617, 0.7740000486373901, 192.0, 0.0, 0.0, 0.0, 0.0, 0.0, 0.0, 0.0, 0.0, 0.0, 1.6137585504385476E9, 2021-02-19 16:15:50.438
239.0, -21326.044921875, 5791.96240234375, -17414.66796875, 129123.96875, 0.0, 0.0, 0.0, 0.0, -0.1340000033378601, -0.6440000534057617, 0.7740000486373901, 192.0, 0.0, 0.0, 0.0, 0.0, 0.0, 0.0, 0.0, 0.0, 0.0, 1.613758550489536E9, 2021-02-19 16:15:50.489
240.0, -21353.224609375, 5788.96728515625, -17415.3828125, 129118.828125, 0.0, 0.0, 0.0, 0.0, -0.1340000033378601, -0.6440000534057617, 0.7740000486373901, 192.0, 0.0, 0.0, 0.0, 0.0, 0.0, 0.0, 0.0, 0.0, 0.0, 1.6137585504925869E9, 2021-02-19 16:15:50.492
241.0, -21480.896484375, 5786.2626953125, -17421.44140625, 129115.0703125, 0.0, 0.0, 0.0, 0.0, -0.1340000033378601, -0.6440000534057617, 0.7740000486373901, 192.0, 0.0, 0.0, 0.0, 0.0, 0.0, 0.0, 0.0, 0.0, 0.0, 1.6137585504955277E9, 2021-02-19 16:15:50.495
242.0, -21447.548828125, 5782.57470703125, -17426.0234375, 129118.3359375, 0.0, 0.0, 0.0, 0.0, -0.1340000033378601, -0.6440000534057617, 0.7740000486373901, 192.0, 0.0, 0.0, 0.0, 0.0, 0.0, 0.0, 0.0, 0.0, 0.0, 1.613758550498778E9, 2021-02-19 16:15:50.498
243.0, -21347.61328125, 5781.4794921875, -17423.228515625, 129127.609375, 0.0, 0.0, 0.0, 0.0, -0.1340000033378601, -0.6440000534057617, 0.7740000486373901, 192.0, 0.0, 0.0, 0.0, 0.0, 0.0, 0.0, 0.0, 0.0, 0.0, 1.613758550502516E9, 2021-02-19 16:15:50.502
248.0, -21330.201171875, 5780.1611328125, -17427.23046875, 129133.8203125, 0.0, 0.0, 0.0, 0.0, -0.1340000033378601, -0.6440000534057617, 0.7740000486373901, 192.0, 0.0, 0.0, 0.0, 0.0, 0.0, 0.0, 0.0, 0.0, 0.0, 1.61375855050572E9, 2021-02-19 16:15:50.505
1.0, -21394.955078125, 5788.54296875, -17420.435546875, 129154.0546875, 0.0, 0.0, 0.0, 0.0, -0.1340000033378601, -0.6440000534057617, 0.7740000486373901, 192.0, 0.0, 0.0, 0.0, 0.0, 0.0, 0.0, 0.0, 0.0, 0.0, 1.613758550508568E9, 2021-02-19 16:15:50.508
251.0, -21376.314453125, 5782.5302734375, -17426.224609375, 129138.8515625, 0.0, 0.0, 0.0, 0.0, -0.1340000033378601, -0.6440000534057617, 0.7740000486373901, 192.0, 0.0, 0.0, 0.0, 0.0, 0.0, 0.0, 0.0, 0.0, 0.0, 1.613758550515572E9, 2021-02-19 16:15:50.515
11.0, -21465.5859375, 5772.82958984375, -17441.712890625, 129151.8203125, 0.0, 0.0, 0.0, 0.0, -0.1340000033378601, -0.6440000534057617, 0.7740000486373901, 192.0, 0.0, 0.0, 0.0, 0.0, 0.0, 0.0, 0.0, 0.0, 0.0, 1.613758550519775E9, 2021-02-19 16:15:50.519
43.0, -21430.271484375, 5804.36767578125, -17425.955078125, 129256.6875, 0.0, 0.0, 0.0, 0.0, -0.1340000033378601, -0.6440000534057617, 0.7740000486373901, 192.0, 0.0, 0.0, 0.0, 0.0, 0.0, 0.0, 0.0, 0.0, 0.0, 1.613758550534709E9, 2021-02-19 16:15:50.534
7.0, -21436.751953125, 5781.30078125, -17430.671875, 129153.5859375, 0.0, 0.0, 0.0, 0.0, -0.1340000033378601, -0.6440000534057617, 0.7740000486373901, 192.0, 0.0, 0.0, 0.0, 0.0, 0.0, 0.0, 0.0, 0.0, 0.0, 1.6137585505406451E9, 2021-02-19 16:15:50.540
41.0, -21384.13671875, 5786.8662109375, -17442.49609375, 129243.015625, 0.0, 0.0, 0.0, 0.0, -0.1340000033378601, -0.6440000534057617, 0.7740000486373901, 192.0, 0.0, 0.0, 0.0, 0.0, 0.0, 0.0, 0.0, 0.0, 0.0, 1.6137585505566745E9, 2021-02-19 16:15:50.556
18.0, -21455.3046875, 5778.77490234375, -17431.275390625, 129173.8984375, 0.0, 0.0, 0.0, 0.0, -0.14000000059604645, -0.64000004529953, 0.7660000324249268, 192.0, 251.0, 160.0, 236.0, 0.0, 23.0, 240.0, 0.0, 0.0, 0.0, 1.613758550560604E9, 2021-02-19 16:15:50.560
23.0, -21509.240234375, 5777.97021484375, -17442.16015625, 129180.6953125, 0.0, 0.0, 0.0, 0.0, -0.14000000059604645, -0.64000004529953, 0.7660000324249268, 192.0, 0.0, 0.0, 0.0, 0.0, 0.0, 0.0, 0.0, 0.0, 0.0, 1.613758550575688E9, 2021-02-19 16:15:50.575
12.0, -21366.880859375, 5770.99658203125, -17438.3828125, 129158.2578125, 0.0, 0.0, 0.0, 0.0, -0.14000000059604645, -0.64000004529953, 0.7660000324249268, 192.0, 0.0, 0.0, 0.0, 0.0, 0.0, 0.0, 0.0, 0.0, 0.0, 1.6137585505786772E9, 2021-02-19 16:15:50.578
39.0, -21473.498046875, 5780.83154296875, -17446.18359375, 129228.6875, 0.0, 0.0, 0.0, 0.0, -0.14000000059604645, -0.64000004529953, 0.7660000324249268, 192.0, 0.0, 0.0, 0.0, 0.0, 0.0, 0.0, 0.0, 0.0, 0.0, 1.613758550628755E9, 2021-02-19 16:15:50.628
14.0, -21477.142578125, 5779.2890625, -17430.314453125, 129162.390625, 0.0, 0.0, 0.0, 0.0, -0.14000000059604645, -0.64000004529953, 0.7660000324249268, 192.0, 0.0, 0.0, 0.0, 0.0, 0.0, 0.0, 0.0, 0.0, 0.0, 1.6137585506327317E9, 2021-02-19 16:15:50.632
60.0, -21462.61328125, 5801.19384765625, -17436.685546875, 129296.3671875, 0.0, 0.0, 0.0, 0.0, -0.14000000059604645, -0.64000004529953, 0.7660000324249268, 192.0, 0.0, 0.0, 0.0, 0.0, 0.0, 0.0, 0.0, 0.0, 0.0, 1.613758550635822E9, 2021-02-19 16:15:50.635
24.0, -21417.6875, 5781.36767578125, -17437.82421875, 129190.796875, 0.0, 0.0, 0.0, 0.0, -0.14000000059604645, -0.64000004529953, 0.7660000324249268, 192.0, 0.0, 0.0, 0.0, 0.0, 0.0, 0.0, 0.0, 0.0, 0.0, 1.6137585506487093E9, 2021-02-19 16:15:50.648
58.0, -21345.646484375, 5793.52734375, -17442.943359375, 129287.25, 0.0, 0.0, 0.0, 0.0, -0.14000000059604645, -0.64000004529953, 0.7660000324249268, 192.0, 0.0, 0.0, 0.0, 0.0, 0.0, 0.0, 0.0, 0.0, 0.0, 1.613758550651864E9, 2021-02-19 16:15:50.651
29.0, -21341.17578125, 5780.9208984375, -17442.40625, 129209.5703125, 0.0, 0.0, 0.0, 0.0, -0.14000000059604645, -0.64000004529953, 0.7660000324249268, 192.0, 0.0, 0.0, 0.0, 0.0, 0.0, 0.0, 0.0, 0.0, 0.0, 1.613758550654749E9, 2021-02-19 16:15:50.654
56.0, -21480.71875, 5799.58447265625, -17438.5390625, 129281.390625, 0.0, 0.0, 0.0, 0.0, -0.14000000059604645, -0.64000004529953, 0.7660000324249268, 192.0, 0.0, 0.0, 0.0, 0.0, 0.0, 0.0, 0.0, 0.0, 0.0, 1.6137585506797652E9, 2021-02-19 16:15:50.679
35.0, -21456.130859375, 5812.4814453125, -17417.619140625, 129248.734375, 0.0, 0.0, 0.0, 0.0, -0.14000000059604645, -0.64000004529953, 0.7660000324249268, 192.0, 0.0, 0.0, 0.0, 0.0, 0.0, 0.0, 0.0, 0.0, 0.0, 1.613758550682763E9, 2021-02-19 16:15:50.682
46.0, -21315.76171875, 5807.1396484375, -17422.0, 129268.1328125, 0.0, 0.0, 0.0, 0.0, -0.14000000059604645, -0.64000004529953, 0.7660000324249268, 192.0, 0.0, 0.0, 0.0, 0.0, 0.0, 0.0, 0.0, 0.0, 0.0, 1.6137585506858916E9, 2021-02-19 16:15:50.685
95.0, -21390.037109375, 5800.076171875, -17450.275390625, 129375.3125, 0.0, 0.0, 0.0, 0.0, -0.14000000059604645, -0.64000004529953, 0.7660000324249268, 192.0, 0.0, 0.0, 0.0, 0.0, 0.0, 0.0, 0.0, 0.0, 0.0, 1.6137585507167597E9, 2021-02-19 16:15:50.716
33.0, -21336.080078125, 5795.44970703125, -17427.36328125, 129229.578125, 0.0, 0.0, 0.0, 0.0, -0.14000000059604645, -0.64000004529953, 0.7660000324249268, 192.0, 0.0, 0.0, 0.0, 0.0, 0.0, 0.0, 0.0, 0.0, 0.0, 1.6137585507208097E9, 2021-02-19 16:15:50.720
44.0, -21470.19140625, 5816.03564453125, -17417.953125, 129266.234375, 0.0, 0.0, 0.0, 0.0, -0.14000000059604645, -0.64000004529953, 0.7660000324249268, 192.0, 0.0, 0.0, 0.0, 0.0, 0.0, 0.0, 0.0, 0.0, 0.0, 1.6137585507258327E9, 2021-02-19 16:15:50.725
47.0, -21393.345703125, 5815.7451171875, -17415.16015625, 129278.0625, 0.0, 0.0, 0.0, 0.0, -0.14000000059604645, -0.6380000114440918, 0.7640000581741333, 192.0, 251.0, 160.0, 236.0, 16.0, 23.0, 224.0, 0.0, 0.0, 0.0, 1.6137585507468193E9, 2021-02-19 16:15:50.746
93.0, -21421.173828125, 5793.81787109375, -17453.806640625, 129368.6328125, 0.0, 0.0, 0.0, 0.0, -0.14000000059604645, -0.6380000114440918, 0.7640000581741333, 192.0, 0.0, 0.0, 0.0, 0.0, 0.0, 0.0, 0.0, 0.0, 0.0, 1.6137585507499285E9, 2021-02-19 16:15:50.749
62.0, -21342.607421875, 5804.43505859375, -17432.75, 129309.0390625, 0.0, 0.0, 0.0, 0.0, -0.14000000059604645, -0.6380000114440918, 0.7640000581741333, 192.0, 0.0, 0.0, 0.0, 0.0, 0.0, 0.0, 0.0, 0.0, 0.0, 1.6137585507550423E9, 2021-02-19 16:15:50.755
91.0, -21363.998046875, 5809.3076171875, -17436.505859375, 129384.96875, 0.0, 0.0, 0.0, 0.0, -0.14000000059604645, -0.6380000114440918, 0.7640000581741333, 192.0, 0.0, 0.0, 0.0, 0.0, 0.0, 0.0, 0.0, 0.0, 0.0, 1.6137585507579184E9, 2021-02-19 16:15:50.757
64.0, -21436.08203125, 5801.8642578125, -17439.27734375, 129303.3359375, 0.0, 0.0, 0.0, 0.0, -0.14000000059604645, -0.6380000114440918, 0.7640000581741333, 192.0, 0.0, 0.0, 0.0, 0.0, 0.0, 0.0, 0.0, 0.0, 0.0, 1.6137585508221092E9, 2021-02-19 16:15:50.822
77.0, -21479.66796875, 5801.3505859375, -17447.615234375, 129335.703125, 0.0, 0.0, 0.0, 0.0, -0.1380000114440918, -0.6340000033378601, 0.7640000581741333, 192.0, 251.0, 176.0, 236.0, 48.0, 23.0, 224.0, 0.0, 0.0, 0.0, 1.6137585508259573E9, 2021-02-19 16:15:50.825
89.0, -21439.814453125, 5799.18212890625, -17443.8828125, 129368.4921875, 0.0, 0.0, 0.0, 0.0, -0.1380000114440918, -0.6340000033378601, 0.7640000581741333, 192.0, 0.0, 0.0, 0.0, 0.0, 0.0, 0.0, 0.0, 0.0, 0.0, 1.613758550830126E9, 2021-02-19 16:15:50.830
67.0, -21304.05078125, 5808.56982421875, -17430.3359375, 129322.5625, 0.0, 0.0, 0.0, 0.0, -0.14400000870227814, -0.64000004529953, 0.7640000581741333, 192.0, 251.0, 128.0, 236.0, 0.0, 23.0, 224.0, 0.0, 0.0, 0.0, 1.6137585508379557E9, 2021-02-19 16:15:50.837
75.0, -21319.0703125, 5803.56298828125, -17438.5390625, 129339.59375, 0.0, 0.0, 0.0, 0.0, -0.14400000870227814, -0.64000004529953, 0.7640000581741333, 192.0, 0.0, 0.0, 0.0, 0.0, 0.0, 0.0, 0.0, 0.0, 0.0, 1.613758550841258E9, 2021-02-19 16:15:50.841
69.0, -21467.419921875, 5806.916015625, -17432.951171875, 129326.6484375, 0.0, 0.0, 0.0, 0.0, -0.14400000870227814, -0.64000004529953, 0.7640000581741333, 192.0, 0.0, 0.0, 0.0, 0.0, 0.0, 0.0, 0.0, 0.0, 0.0, 1.6137585508439567E9, 2021-02-19 16:15:50.843
87.0, -21353.380859375, 5800.1435546875, -17441.19921875, 129372.25, 0.0, 0.0, 0.0, 0.0, -0.1380000114440918, -0.6340000033378601, 0.7600000500679016, 192.0, 251.0, 176.0, 236.0, 48.0, 23.0, 192.0, 0.0, 0.0, 0.0, 1.6137585508482227E9, 2021-02-19 16:15:50.848
73.0, -21484.02734375, 5799.00341796875, -17446.02734375, 129326.3828125, 0.0, 0.0, 0.0, 0.0, -0.1380000114440918, -0.6340000033378601, 0.7600000500679016, 192.0, 0.0, 0.0, 0.0, 0.0, 0.0, 0.0, 0.0, 0.0, 0.0, 1.6137585508511338E9, 2021-02-19 16:15:50.851
85.0, -21458.076171875, 5799.96435546875, -17446.20703125, 129357.8984375, 0.0, 0.0, 0.0, 0.0, -0.1380000114440918, -0.6340000033378601, 0.7600000500679016, 192.0, 0.0, 0.0, 0.0, 0.0, 0.0, 0.0, 0.0, 0.0, 0.0, 1.6137585508551843E9, 2021-02-19 16:15:50.855
79.0, -21340.73046875, 5789.75, -17454.41015625, 129339.6171875, 0.0, 0.0, 0.0, 0.0, -0.1380000114440918, -0.6340000033378601, 0.7600000500679016, 192.0, 0.0, 0.0, 0.0, 0.0, 0.0, 0.0, 0.0, 0.0, 0.0, 1.6137585508579762E9, 2021-02-19 16:15:50.857
82.0, -21445.470703125, 5793.68359375, -17456.33203125, 129344.578125, 0.0, 0.0, 0.0, 0.0, -0.1380000114440918, -0.6340000033378601, 0.7600000500679016, 192.0, 0.0, 0.0, 0.0, 0.0, 0.0, 0.0, 0.0, 0.0, 0.0, 1.6137585508810525E9, 2021-02-19 16:15:50.881
143.0, -21420.546875, 5793.03564453125, -17455.572265625, 129470.375, 0.0, 0.0, 0.0, 0.0, -0.1380000114440918, -0.6340000033378601, 0.7600000500679016, 192.0, 0.0, 0.0, 0.0, 0.0, 0.0, 0.0, 0.0, 0.0, 0.0, 1.613758550885259E9, 2021-02-19 16:15:50.885
96.0, -21326.826171875, 5794.19775390625, -17451.392578125, 129375.6484375, 0.0, 0.0, 0.0, 0.0, -0.1340000033378601, -0.6360000371932983, 0.7600000500679016, 192.0, 251.0, 208.0, 236.0, 32.0, 23.0, 192.0, 0.0, 0.0, 0.0, 1.6137585508891385E9, 2021-02-19 16:15:50.889
141.0, -21400.140625, 5792.521484375, -17460.33203125, 129460.4921875, 0.0, 0.0, 0.0, 0.0, -0.1340000033378601, -0.6360000371932983, 0.7600000500679016, 192.0, 0.0, 0.0, 0.0, 0.0, 0.0, 0.0, 0.0, 0.0, 0.0, 1.6137585508960278E9, 2021-02-19 16:15:50.896
100.0, -21339.232421875, 5794.57763671875, -17447.099609375, 129388.5703125, 0.0, 0.0, 0.0, 0.0, -0.1340000033378601, -0.6360000371932983, 0.7600000500679016, 192.0, 0.0, 0.0, 0.0, 0.0, 0.0, 0.0, 0.0, 0.0, 0.0, 1.6137585509011168E9, 2021-02-19 16:15:50.901
125.0, -21336.505859375, 5806.84912109375, -17447.703125, 129451.4453125, 0.0, 0.0, 0.0, 0.0, -0.1340000033378601, -0.6360000371932983, 0.7600000500679016, 192.0, 0.0, 0.0, 0.0, 0.0, 0.0, 0.0, 0.0, 0.0, 0.0, 1.613758550904096E9, 2021-02-19 16:15:50.904
139.0, -21444.798828125, 5793.57177734375, -17462.0546875, 129460.9453125, 0.0, 0.0, 0.0, 0.0, -0.1340000033378601, -0.6360000371932983, 0.7600000500679016, 192.0, 0.0, 0.0, 0.0, 0.0, 0.0, 0.0, 0.0, 0.0, 0.0, 1.6137585509071484E9, 2021-02-19 16:15:50.907
103.0, -21422.380859375, 5812.4814453125, -17440.373046875, 129403.3671875, 0.0, 0.0, 0.0, 0.0, -0.1340000033378601, -0.6360000371932983, 0.7600000500679016, 192.0, 0.0, 0.0, 0.0, 0.0, 0.0, 0.0, 0.0, 0.0, 0.0, 1.613758550911029E9, 2021-02-19 16:15:50.911
108.0, -21344.8203125, 5805.99951171875, -17445.1328125, 129416.796875, 0.0, 0.0, 0.0, 0.0, -0.1340000033378601, -0.6360000371932983, 0.7600000500679016, 192.0, 0.0, 0.0, 0.0, 0.0, 0.0, 0.0, 0.0, 0.0, 0.0, 1.6137585509140677E9, 2021-02-19 16:15:50.914
123.0, -21490.666015625, 5809.59814453125, -17448.396484375, 129441.0, 0.0, 0.0, 0.0, 0.0, -0.1340000033378601, -0.6360000371932983, 0.7600000500679016, 192.0, 0.0, 0.0, 0.0, 0.0, 0.0, 0.0, 0.0, 0.0, 0.0, 1.6137585509171183E9, 2021-02-19 16:15:50.917
137.0, -21367.373046875, 5806.64794921875, -17447.681640625, 129473.9921875, 0.0, 0.0, 0.0, 0.0, -0.1340000033378601, -0.6360000371932983, 0.7600000500679016, 192.0, 0.0, 0.0, 0.0, 0.0, 0.0, 0.0, 0.0, 0.0, 0.0, 1.6137585509211555E9, 2021-02-19 16:15:50.921
121.0, -21326.939453125, 5807.3408203125, -17443.12109375, 129448.359375, 0.0, 0.0, 0.0, 0.0, -0.1340000033378601, -0.6360000371932983, 0.7600000500679016, 192.0, 0.0, 0.0, 0.0, 0.0, 0.0, 0.0, 0.0, 0.0, 0.0, 1.613758550928466E9, 2021-02-19 16:15:50.928
118.0, -21433.69140625, 5788.63232421875, -17461.62890625, 129419.5703125, 0.0, 0.0, 0.0, 0.0, -0.1340000033378601, -0.6360000371932983, 0.7600000500679016, 192.0, 0.0, 0.0, 0.0, 0.0, 0.0, 0.0, 0.0, 0.0, 0.0, 1.6137585509321384E9, 2021-02-19 16:15:50.932
133.0, -21358.4765625, 5803.36181640625, -17447.79296875, 129456.09375, 0.0, 0.0, 0.0, 0.0, -0.1340000033378601, -0.6360000371932983, 0.7600000500679016, 192.0, 0.0, 0.0, 0.0, 0.0, 0.0, 0.0, 0.0, 0.0, 0.0, 1.6137585509351356E9, 2021-02-19 16:15:50.935
131.0, -21479.646484375, 5806.2900390625, -17447.369140625, 129448.0859375, 0.0, 0.0, 0.0, 0.0, -0.1340000033378601, -0.6360000371932983, 0.7600000500679016, 192.0, 0.0, 0.0, 0.0, 0.0, 0.0, 0.0, 0.0, 0.0, 0.0, 1.6137585509392672E9, 2021-02-19 16:15:50.939
127.0, -21497.52734375, 5799.3388671875, -17457.673828125, 129442.9296875, 0.0, 0.0, 0.0, 0.0, -0.1340000033378601, -0.6360000371932983, 0.7600000500679016, 192.0, 0.0, 0.0, 0.0, 0.0, 0.0, 0.0, 0.0, 0.0, 0.0, 1.6137585509421713E9, 2021-02-19 16:15:50.942
128.0, -21447.302734375, 5801.4619140625, -17456.01953125, 129444.0234375, 0.0, 0.0, 0.0, 0.0, -0.1340000033378601, -0.6360000371932983, 0.7600000500679016, 192.0, 0.0, 0.0, 0.0, 0.0, 0.0, 0.0, 0.0, 0.0, 0.0, 1.6137585509452455E9, 2021-02-19 16:15:50.945
129.0, -21354.275390625, 5799.80810546875, -17452.822265625, 129446.8125, 0.0, 0.0, 0.0, 0.0, -0.1340000033378601, -0.6360000371932983, 0.7600000500679016, 192.0, 0.0, 0.0, 0.0, 0.0, 0.0, 0.0, 0.0, 0.0, 0.0, 1.6137585509493916E9, 2021-02-19 16:15:50.949
144.0, -21502.779296875, 5792.63330078125, -17457.13671875, 129468.8515625, 0.0, 0.0, 0.0, 0.0, -0.1340000033378601, -0.6360000371932983, 0.7600000500679016, 192.0, 0.0, 0.0, 0.0, 0.0, 0.0, 0.0, 0.0, 0.0, 0.0, 1.6137585509521365E9, 2021-02-19 16:15:50.952
145.0, -21423.05078125, 5787.78271484375, -17459.484375, 129472.8984375, 0.0, 0.0, 0.0, 0.0, -0.1340000033378601, -0.6360000371932983, 0.7600000500679016, 192.0, 0.0, 0.0, 0.0, 0.0, 0.0, 0.0, 0.0, 0.0, 0.0, 1.6137585509561665E9, 2021-02-19 16:15:50.956
146.0, -21347.0546875, 5787.291015625, -17456.48828125, 129477.03125, 0.0, 0.0, 0.0, 0.0, -0.13199999928474426, -0.6360000371932983, 0.7720000147819519, 192.0, 251.0, 224.0, 236.0, 32.0, 24.0, 32.0, 0.0, 0.0, 0.0, 1.613758550959149E9, 2021-02-19 16:15:50.959
147.0, -21401.548828125, 5788.744140625, -17456.755859375, 129474.8671875, 0.0, 0.0, 0.0, 0.0, -0.13199999928474426, -0.6360000371932983, 0.7720000147819519, 192.0, 0.0, 0.0, 0.0, 0.0, 0.0, 0.0, 0.0, 0.0, 0.0, 1.6137585509631495E9, 2021-02-19 16:15:50.963
148.0, -21508.79296875, 5791.2919921875, -17458.857421875, 129469.6328125, 0.0, 0.0, 0.0, 0.0, -0.13199999928474426, -0.6360000371932983, 0.7720000147819519, 192.0, 0.0, 0.0, 0.0, 0.0, 0.0, 0.0, 0.0, 0.0, 0.0, 1.613758550979174E9, 2021-02-19 16:15:50.979
157.0, -21466.904296875, 5808.36865234375, -17450.720703125, 129502.2734375, 0.0, 0.0, 0.0, 0.0, -0.13199999928474426, -0.6360000371932983, 0.7720000147819519, 192.0, 0.0, 0.0, 0.0, 0.0, 0.0, 0.0, 0.0, 0.0, 0.0, 1.6137585509821591E9, 2021-02-19 16:15:50.982
150.0, -21351.8828125, 5799.3388671875, -17448.375, 129484.5, 0.0, 0.0, 0.0, 0.0, -0.13199999928474426, -0.6360000371932983, 0.7720000147819519, 192.0, 0.0, 0.0, 0.0, 0.0, 0.0, 0.0, 0.0, 0.0, 0.0, 1.6137585509871356E9, 2021-02-19 16:15:50.987
151.0, -21376.0, 5798.02001953125, -17449.71484375, 129485.078125, 0.0, 0.0, 0.0, 0.0, -0.13199999928474426, -0.6360000371932983, 0.7720000147819519, 192.0, 0.0, 0.0, 0.0, 0.0, 0.0, 0.0, 0.0, 0.0, 0.0, 1.613758550991146E9, 2021-02-19 16:15:50.991
152.0, -21498.890625, 5796.34375, -17455.974609375, 129481.125, 0.0, 0.0, 0.0, 0.0, -0.13199999928474426, -0.6360000371932983, 0.7720000147819519, 192.0, 0.0, 0.0, 0.0, 0.0, 0.0, 0.0, 0.0, 0.0, 0.0, 1.6137585509961686E9, 2021-02-19 16:15:50.996
162.0, -21388.00390625, 5802.35595703125, -17457.650390625, 129505.6640625, 0.0, 0.0, 0.0, 0.0, -0.13199999928474426, -0.6360000371932983, 0.7720000147819519, 192.0, 0.0, 0.0, 0.0, 0.0, 0.0, 0.0, 0.0, 0.0, 0.0, 1.6137585509992185E9, 2021-02-19 16:15:50.999
158.0, -21364.958984375, 5810.73828125, -17446.36328125, 129511.765625, 0.0, 0.0, 0.0, 0.0, -0.13199999928474426, -0.6360000371932983, 0.7720000147819519, 192.0, 0.0, 0.0, 0.0, 0.0, 0.0, 0.0, 0.0, 0.0, 0.0, 1.6137585510022423E9, 2021-02-19 16:15:51.002
159.0, -21334.76171875, 5812.302734375, -17443.322265625, 129515.3046875, 0.0, 0.0, 0.0, 0.0, -0.13199999928474426, -0.6360000371932983, 0.7720000147819519, 192.0, 0.0, 0.0, 0.0, 0.0, 0.0, 0.0, 0.0, 0.0, 0.0, 1.6137585510063293E9, 2021-02-19 16:15:51.006
160.0, -21458.8359375, 5811.1181640625, -17447.63671875, 129510.0, 0.0, 0.0, 0.0, 0.0, -0.13199999928474426, -0.6360000371932983, 0.7720000147819519, 192.0, 0.0, 0.0, 0.0, 0.0, 0.0, 0.0, 0.0, 0.0, 0.0, 1.6137585510091631E9, 2021-02-19 16:15:51.009
163.0, -21334.94140625, 5804.658203125, -17453.203125, 129514.671875, 0.0, 0.0, 0.0, 0.0, -0.13199999928474426, -0.6360000371932983, 0.7720000147819519, 192.0, 0.0, 0.0, 0.0, 0.0, 0.0, 0.0, 0.0, 0.0, 0.0, 1.613758551013229E9, 2021-02-19 16:15:51.013
164.0, -21432.953125, 5810.2685546875, -17451.03515625, 129518.203125, 0.0, 0.0, 0.0, 0.0, -0.13199999928474426, -0.6360000371932983, 0.7720000147819519, 192.0, 0.0, 0.0, 0.0, 0.0, 0.0, 0.0, 0.0, 0.0, 0.0, 1.613758551016215E9, 2021-02-19 16:15:51.016
165.0, -21489.458984375, 5814.9404296875, -17450.029296875, 129520.3984375, 0.0, 0.0, 0.0, 0.0, -0.1300000101327896, -0.6360000371932983, 0.7720000147819519, 192.0, 251.0, 240.0, 236.0, 32.0, 24.0, 32.0, 0.0, 0.0, 0.0, 1.6137585510194085E9, 2021-02-19 16:15:51.019
166.0, -21402.21875, 5814.5380859375, -17447.458984375, 129524.734375, 0.0, 0.0, 0.0, 0.0, -0.1300000101327896, -0.6360000371932983, 0.7720000147819519, 192.0, 0.0, 0.0, 0.0, 0.0, 0.0, 0.0, 0.0, 0.0, 0.0, 1.6137585510221996E9, 2021-02-19 16:15:51.022
167.0, -21334.716796875, 5809.21826171875, -17448.822265625, 129522.9453125, 0.0, 0.0, 0.0, 0.0, -0.1300000101327896, -0.6360000371932983, 0.7720000147819519, 192.0, 0.0, 0.0, 0.0, 0.0, 0.0, 0.0, 0.0, 0.0, 0.0, 1.6137585510262196E9, 2021-02-19 16:15:51.026
168.0, -21410.04296875, 5810.17919921875, -17450.51953125, 129522.7890625, 0.0, 0.0, 0.0, 0.0, -0.1300000101327896, -0.6360000371932983, 0.7720000147819519, 192.0, 0.0, 0.0, 0.0, 0.0, 0.0, 0.0, 0.0, 0.0, 0.0, 1.6137585510312133E9, 2021-02-19 16:15:51.031
169.0, -21492.1171875, 5823.724609375, -17443.14453125, 129531.6171875, 0.0, 0.0, 0.0, 0.0, -0.1300000101327896, -0.6360000371932983, 0.7720000147819519, 192.0, 0.0, 0.0, 0.0, 0.0, 0.0, 0.0, 0.0, 0.0, 0.0, 1.6137585510342035E9, 2021-02-19 16:15:51.034
170.0, -21410.734375, 5826.63037109375, -17440.529296875, 129536.890625, 0.0, 0.0, 0.0, 0.0, -0.1300000101327896, -0.6360000371932983, 0.7720000147819519, 192.0, 0.0, 0.0, 0.0, 0.0, 0.0, 0.0, 0.0, 0.0, 0.0, 1.6137585510371928E9, 2021-02-19 16:15:51.037
171.0, -21337.109375, 5819.18701171875, -17446.408203125, 129534.765625, 0.0, 0.0, 0.0, 0.0, -0.1300000101327896, -0.6360000371932983, 0.7720000147819519, 192.0, 0.0, 0.0, 0.0, 0.0, 0.0, 0.0, 0.0, 0.0, 0.0, 1.613758551040194E9, 2021-02-19 16:15:51.040
172.0, -21381.65625, 5816.7060546875, -17451.28125, 129530.34375, 0.0, 0.0, 0.0, 0.0, -0.1300000101327896, -0.6360000371932983, 0.7720000147819519, 192.0, 0.0, 0.0, 0.0, 0.0, 0.0, 0.0, 0.0, 0.0, 0.0, 1.613758551051397E9, 2021-02-19 16:15:51.051
173.0, -21490.53125, 5820.70703125, -17453.8515625, 129530.296875, 0.0, 0.0, 0.0, 0.0, -0.1300000101327896, -0.6360000371932983, 0.7720000147819519, 192.0, 0.0, 0.0, 0.0, 0.0, 0.0, 0.0, 0.0, 0.0, 0.0, 1.6137585510564134E9, 2021-02-19 16:15:51.056
174.0, -21432.505859375, 5822.02587890625, -17453.962890625, 129535.796875, 0.0, 0.0, 0.0, 0.0, -0.1300000101327896, -0.6360000371932983, 0.7720000147819519, 192.0, 0.0, 0.0, 0.0, 0.0, 0.0, 0.0, 0.0, 0.0, 0.0, 1.613758551061416E9, 2021-02-19 16:15:51.061
175.0, -21339.41015625, 5820.21533203125, -17452.330078125, 129540.109375, 0.0, 0.0, 0.0, 0.0, -0.1340000033378601, -0.6340000033378601, 0.7700000405311584, 192.0, 251.0, 208.0, 236.0, 48.0, 24.0, 16.0, 0.0, 0.0, 0.0, 1.6137585510672245E9, 2021-02-19 16:15:51.067
176.0, -21364.04296875, 5813.21923828125, -17457.583984375, 129533.25, 0.0, 0.0, 0.0, 0.0, -0.1340000033378601, -0.6340000033378601, 0.7700000405311584, 192.0, 0.0, 0.0, 0.0, 0.0, 0.0, 0.0, 0.0, 0.0, 0.0, 1.613758551070256E9, 2021-02-19 16:15:51.070
177.0, -21487.892578125, 5819.79052734375, -17456.01953125, 129532.78125, 0.0, 0.0, 0.0, 0.0, -0.1340000033378601, -0.6340000033378601, 0.7700000405311584, 192.0, 0.0, 0.0, 0.0, 0.0, 0.0, 0.0, 0.0, 0.0, 0.0, 1.6137585510742457E9, 2021-02-19 16:15:51.074
183.0, -21357.939453125, 5837.56005859375, -17443.14453125, 129567.1328125, 0.0, 0.0, 0.0, 0.0, -0.1340000033378601, -0.6340000033378601, 0.7700000405311584, 192.0, 0.0, 0.0, 0.0, 0.0, 0.0, 0.0, 0.0, 0.0, 0.0, 1.6137585511063678E9, 2021-02-19 16:15:51.106
179.0, -21348.75390625, 5833.7158203125, -17440.619140625, 129561.390625, 0.0, 0.0, 0.0, 0.0, -0.1340000033378601, -0.6340000033378601, 0.7700000405311584, 192.0, 0.0, 0.0, 0.0, 0.0, 0.0, 0.0, 0.0, 0.0, 0.0, 1.6137585511133187E9, 2021-02-19 16:15:51.113
180.0, -21341.244140625, 5829.513671875, -17442.49609375, 129560.1796875, 0.0, 0.0, 0.0, 0.0, -0.1340000033378601, -0.6340000033378601, 0.7700000405311584, 192.0, 0.0, 0.0, 0.0, 0.0, 0.0, 0.0, 0.0, 0.0, 0.0, 1.6137585511163683E9, 2021-02-19 16:15:51.116
181.0, -21466.32421875, 5829.4462890625, -17447.837890625, 129553.921875, 0.0, 0.0, 0.0, 0.0, -0.1340000033378601, -0.6340000033378601, 0.7700000405311584, 192.0, 0.0, 0.0, 0.0, 0.0, 0.0, 0.0, 0.0, 0.0, 0.0, 1.6137585511212788E9, 2021-02-19 16:15:51.121
184.0, -21329.6875, 5829.669921875, -17447.546875, 129563.1796875, 0.0, 0.0, 0.0, 0.0, -0.1340000033378601, -0.6340000033378601, 0.7700000405311584, 192.0, 0.0, 0.0, 0.0, 0.0, 0.0, 0.0, 0.0, 0.0, 0.0, 1.6137585511253517E9, 2021-02-19 16:15:51.125
185.0, -21452.95703125, 5824.43994140625, -17453.626953125, 129555.4453125, 0.0, 0.0, 0.0, 0.0, -0.1340000033378601, -0.6340000033378601, 0.7660000324249268, 192.0, 251.0, 208.0, 236.0, 48.0, 23.0, 240.0, 0.0, 0.0, 0.0, 1.6137585511303246E9, 2021-02-19 16:15:51.130
186.0, -21487.87109375, 5826.6748046875, -17454.8125, 129557.5, 0.0, 0.0, 0.0, 0.0, -0.1340000033378601, -0.6340000033378601, 0.7660000324249268, 192.0, 0.0, 0.0, 0.0, 0.0, 0.0, 0.0, 0.0, 0.0, 0.0, 1.6137585511413195E9, 2021-02-19 16:15:51.141
187.0, -21387.087890625, 5824.41748046875, -17454.833984375, 129561.6796875, 0.0, 0.0, 0.0, 0.0, -0.1340000033378601, -0.6340000033378601, 0.7660000324249268, 192.0, 0.0, 0.0, 0.0, 0.0, 0.0, 0.0, 0.0, 0.0, 0.0, 1.613758551145337E9, 2021-02-19 16:15:51.145
188.0, -21340.4609375, 5814.8505859375, -17461.919921875, 129555.46875, 0.0, 0.0, 0.0, 0.0, -0.1340000033378601, -0.6340000033378601, 0.7660000324249268, 192.0, 0.0, 0.0, 0.0, 0.0, 0.0, 0.0, 0.0, 0.0, 0.0, 1.6137585511483605E9, 2021-02-19 16:15:51.148
189.0, -21441.759765625, 5816.8623046875, -17462.544921875, 129554.4609375, 0.0, 0.0, 0.0, 0.0, -0.1340000033378601, -0.6340000033378601, 0.7660000324249268, 192.0, 0.0, 0.0, 0.0, 0.0, 0.0, 0.0, 0.0, 0.0, 0.0, 1.613758551152518E9, 2021-02-19 16:15:51.152
190.0, -21498.287109375, 5825.53515625, -17457.5390625, 129562.171875, 0.0, 0.0, 0.0, 0.0, -0.1340000033378601, -0.6340000033378601, 0.7660000324249268, 192.0, 0.0, 0.0, 0.0, 0.0, 0.0, 0.0, 0.0, 0.0, 0.0, 1.6137585511603384E9, 2021-02-19 16:15:51.160
191.0, -21407.583984375, 5831.83837890625, -17451.392578125, 129572.9921875, 0.0, 0.0, 0.0, 0.0, -0.1340000033378601, -0.6340000033378601, 0.7660000324249268, 192.0, 0.0, 0.0, 0.0, 0.0, 0.0, 0.0, 0.0, 0.0, 0.0, 1.613758551164351E9, 2021-02-19 16:15:51.164
192.0, -21337.064453125, 5828.59716796875, -17452.173828125, 129574.7578125, 0.0, 0.0, 0.0, 0.0, -0.1340000033378601, -0.6340000033378601, 0.7660000324249268, 192.0, 0.0, 0.0, 0.0, 0.0, 0.0, 0.0, 0.0, 0.0, 0.0, 1.6137585511696455E9, 2021-02-19 16:15:51.169
193.0, -21406.98046875, 5827.9267578125, -17453.73828125, 129570.53125, 0.0, 0.0, 0.0, 0.0, -0.1340000033378601, -0.6340000033378601, 0.7660000324249268, 192.0, 0.0, 0.0, 0.0, 0.0, 0.0, 0.0, 0.0, 0.0, 0.0, 1.6137585511723747E9, 2021-02-19 16:15:51.172
194.0, -21503.986328125, 5827.3232421875, -17458.09765625, 129569.796875, 0.0, 0.0, 0.0, 0.0, -0.1340000033378601, -0.6340000033378601, 0.7660000324249268, 192.0, 0.0, 0.0, 0.0, 0.0, 0.0, 0.0, 0.0, 0.0, 0.0, 1.6137585511823637E9, 2021-02-19 16:15:51.182
195.0, -21433.578125, 5823.41162109375, -17461.025390625, 129574.625, 0.0, 0.0, 0.0, 0.0, -0.13600000739097595, -0.6380000114440918, 0.7680000066757202, 192.0, 251.0, 192.0, 236.0, 16.0, 24.0, 0.0, 0.0, 0.0, 0.0, 1.613758551185475E9, 2021-02-19 16:15:51.185
196.0, -21357.404296875, 5813.44287109375, -17468.24609375, 129571.46875, 0.0, 0.0, 0.0, 0.0, -0.13600000739097595, -0.6380000114440918, 0.7680000066757202, 192.0, 0.0, 0.0, 0.0, 0.0, 0.0, 0.0, 0.0, 0.0, 0.0, 1.6137585511943948E9, 2021-02-19 16:15:51.194
215.0, -21496.38671875, 5842.18701171875, -17460.310546875, 129624.53125, 0.0, 0.0, 0.0, 0.0, -0.1380000114440918, -0.6340000033378601, 0.7640000581741333, 192.0, 251.0, 176.0, 236.0, 48.0, 23.0, 224.0, 0.0, 0.0, 0.0, 1.613758551197442E9, 2021-02-19 16:15:51.197
198.0, -21505.73046875, 5815.81201171875, -17472.15625, 129568.09375, 0.0, 0.0, 0.0, 0.0, -0.1380000114440918, -0.6340000033378601, 0.7640000581741333, 192.0, 0.0, 0.0, 0.0, 0.0, 0.0, 0.0, 0.0, 0.0, 0.0, 1.6137585512045329E9, 2021-02-19 16:15:51.204
213.0, -21332.5703125, 5835.61572265625, -17458.388671875, 129617.7421875, 0.0, 0.0, 0.0, 0.0, -0.1380000114440918, -0.6340000033378601, 0.7640000581741333, 192.0, 0.0, 0.0, 0.0, 0.0, 0.0, 0.0, 0.0, 0.0, 0.0, 1.613758551234468E9, 2021-02-19 16:15:51.234
200.0, -21360.845703125, 5818.1142578125, -17464.84765625, 129586.15625, 0.0, 0.0, 0.0, 0.0, -0.1380000114440918, -0.6340000033378601, 0.7640000581741333, 192.0, 0.0, 0.0, 0.0, 0.0, 0.0, 0.0, 0.0, 0.0, 0.0, 1.613758551256562E9, 2021-02-19 16:15:51.256
201.0, -21366.74609375, 5820.81884765625, -17460.130859375, 129590.625, 0.0, 0.0, 0.0, 0.0, -0.1380000114440918, -0.6340000033378601, 0.7640000581741333, 192.0, 0.0, 0.0, 0.0, 0.0, 0.0, 0.0, 0.0, 0.0, 0.0, 1.6137585512595067E9, 2021-02-19 16:15:51.259
211.0, -21488.20703125, 5841.6953125, -17456.779296875, 129614.65625, 0.0, 0.0, 0.0, 0.0, -0.1380000114440918, -0.6340000033378601, 0.7640000581741333, 192.0, 0.0, 0.0, 0.0, 0.0, 0.0, 0.0, 0.0, 0.0, 0.0, 1.613758551262514E9, 2021-02-19 16:15:51.262
203.0, -21464.849609375, 5831.2568359375, -17454.38671875, 129595.4765625, 0.0, 0.0, 0.0, 0.0, -0.1380000114440918, -0.6340000033378601, 0.7640000581741333, 192.0, 0.0, 0.0, 0.0, 0.0, 0.0, 0.0, 0.0, 0.0, 0.0, 1.613758551266709E9, 2021-02-19 16:15:51.266
209.0, -21328.63671875, 5841.896484375, -17448.375, 129617.4453125, 0.0, 0.0, 0.0, 0.0, -0.1380000114440918, -0.6340000033378601, 0.7640000581741333, 192.0, 0.0, 0.0, 0.0, 0.0, 0.0, 0.0, 0.0, 0.0, 0.0, 1.6137585512694943E9, 2021-02-19 16:15:51.269
205.0, -21342.3828125, 5835.8837890625, -17448.017578125, 129604.125, 0.0, 0.0, 0.0, 0.0, -0.1380000114440918, -0.6380000114440918, 0.7620000243186951, 192.0, 251.0, 176.0, 236.0, 16.0, 23.0, 208.0, 0.0, 0.0, 0.0, 1.6137585512726462E9, 2021-02-19 16:15:51.272
206.0, -21470.638671875, 5836.95654296875, -17452.3984375, 129599.7265625, 0.0, 0.0, 0.0, 0.0, -0.1380000114440918, -0.6380000114440918, 0.7620000243186951, 192.0, 0.0, 0.0, 0.0, 0.0, 0.0, 0.0, 0.0, 0.0, 0.0, 1.6137585512765007E9, 2021-02-19 16:15:51.276
207.0, -21470.01171875, 5842.90234375, -17449.6484375, 129608.6875, 0.0, 0.0, 0.0, 0.0, -0.1380000114440918, -0.6380000114440918, 0.7620000243186951, 192.0, 0.0, 0.0, 0.0, 0.0, 0.0, 0.0, 0.0, 0.0, 0.0, 1.6137585512796822E9, 2021-02-19 16:15:51.279
216.0, -21401.99609375, 5847.3056640625, -17453.248046875, 129636.15625, 0.0, 0.0, 0.0, 0.0, -0.1380000114440918, -0.6380000114440918, 0.7620000243186951, 192.0, 0.0, 0.0, 0.0, 0.0, 0.0, 0.0, 0.0, 0.0, 0.0, 1.6137585512828822E9, 2021-02-19 16:15:51.282
223.0, -21493.794921875, 5838.0517578125, -17465.02734375, 129642.75, 0.0, 0.0, 0.0, 0.0, -0.1380000114440918, -0.6380000114440918, 0.7620000243186951, 192.0, 0.0, 0.0, 0.0, 0.0, 0.0, 0.0, 0.0, 0.0, 0.0, 1.6137585512854867E9, 2021-02-19 16:15:51.285
218.0, -21382.68359375, 5845.53955078125, -17453.3359375, 129646.6875, 0.0, 0.0, 0.0, 0.0, -0.1380000114440918, -0.6380000114440918, 0.7620000243186951, 192.0, 0.0, 0.0, 0.0, 0.0, 0.0, 0.0, 0.0, 0.0, 0.0, 1.6137585512935283E9, 2021-02-19 16:15:51.293
219.0, -21477.634765625, 5858.6376953125, -17446.02734375, 129658.3515625, 0.0, 0.0, 0.0, 0.0, -0.1380000114440918, -0.6380000114440918, 0.7620000243186951, 192.0, 0.0, 0.0, 0.0, 0.0, 0.0, 0.0, 0.0, 0.0, 0.0, 1.6137585512975364E9, 2021-02-19 16:15:51.297
220.0, -21407.875, 5859.17431640625, -17445.55859375, 129663.25, 0.0, 0.0, 0.0, 0.0, -0.1380000114440918, -0.6380000114440918, 0.7620000243186951, 192.0, 0.0, 0.0, 0.0, 0.0, 0.0, 0.0, 0.0, 0.0, 0.0, 1.6137585513006697E9, 2021-02-19 16:15:51.300
229.0, -21366.478515625, 5837.15771484375, -17459.796875, 129656.0078125, 0.0, 0.0, 0.0, 0.0, -0.1380000114440918, -0.6380000114440918, 0.7620000243186951, 192.0, 0.0, 0.0, 0.0, 0.0, 0.0, 0.0, 0.0, 0.0, 0.0, 1.6137585513046806E9, 2021-02-19 16:15:51.304
224.0, -21455.908203125, 5834.900390625, -17468.759765625, 129641.6796875, 0.0, 0.0, 0.0, 0.0, -0.1380000114440918, -0.6380000114440918, 0.7620000243186951, 192.0, 0.0, 0.0, 0.0, 0.0, 0.0, 0.0, 0.0, 0.0, 0.0, 1.6137585513075151E9, 2021-02-19 16:15:51.307
225.0, -21356.2421875, 5836.01806640625, -17464.244140625, 129648.2265625, 0.0, 0.0, 0.0, 0.0, -0.13600000739097595, -0.6340000033378601, 0.7580000162124634, 192.0, 251.0, 192.0, 236.0, 48.0, 23.0, 176.0, 0.0, 0.0, 0.0, 1.6137585513125365E9, 2021-02-19 16:15:51.312
226.0, -21355.50390625, 5834.60986328125, -17462.58984375, 129649.703125, 0.0, 0.0, 0.0, 0.0, -0.13600000739097595, -0.6340000033378601, 0.7580000162124634, 192.0, 0.0, 0.0, 0.0, 0.0, 0.0, 0.0, 0.0, 0.0, 0.0, 1.613758551317604E9, 2021-02-19 16:15:51.317
227.0, -21478.728515625, 5836.912109375, -17461.94140625, 129649.2109375, 0.0, 0.0, 0.0, 0.0, -0.13600000739097595, -0.6340000033378601, 0.7580000162124634, 192.0, 0.0, 0.0, 0.0, 0.0, 0.0, 0.0, 0.0, 0.0, 0.0, 1.613758551321782E9, 2021-02-19 16:15:51.321
246.0, -21329.888671875, 5854.32421875, -17451.90625, 129694.8515625, 0.0, 0.0, 0.0, 0.0, -0.13600000739097595, -0.6340000033378601, 0.7580000162124634, 192.0, 0.0, 0.0, 0.0, 0.0, 0.0, 0.0, 0.0, 0.0, 0.0, 1.613758551324797E9, 2021-02-19 16:15:51.324
231.0, -21456.421875, 5849.294921875, -17447.369140625, 129659.9140625, 0.0, 0.0, 0.0, 0.0, -0.13600000739097595, -0.6340000033378601, 0.7580000162124634, 192.0, 0.0, 0.0, 0.0, 0.0, 0.0, 0.0, 0.0, 0.0, 0.0, 1.6137585513275497E9, 2021-02-19 16:15:51.327
237.0, -21392.33984375, 5851.14990234375, -17445.693359375, 129674.9609375, 0.0, 0.0, 0.0, 0.0, -0.13600000739097595, -0.6340000033378601, 0.7580000162124634, 192.0, 0.0, 0.0, 0.0, 0.0, 0.0, 0.0, 0.0, 0.0, 0.0, 1.613758551330546E9, 2021-02-19 16:15:51.330
233.0, -21375.375, 5849.78662109375, -17446.8984375, 129665.546875, 0.0, 0.0, 0.0, 0.0, -0.13600000739097595, -0.6340000033378601, 0.7580000162124634, 192.0, 0.0, 0.0, 0.0, 0.0, 0.0, 0.0, 0.0, 0.0, 0.0, 1.613758551334625E9, 2021-02-19 16:15:51.334
244.0, -21480.451171875, 5866.61767578125, -17442.65234375, 129698.40625, 0.0, 0.0, 0.0, 0.0, -0.1380000114440918, -0.6420000195503235, 0.7500000596046448, 192.0, 251.0, 176.0, 235.0, 240.0, 23.0, 112.0, 0.0, 0.0, 0.0, 1.6137585513375912E9, 2021-02-19 16:15:51.337
235.0, -21426.626953125, 5857.81103515625, -17437.244140625, 129675.296875, 0.0, 0.0, 0.0, 0.0, -0.1380000114440918, -0.6420000195503235, 0.7500000596046448, 192.0, 0.0, 0.0, 0.0, 0.0, 0.0, 0.0, 0.0, 0.0, 0.0, 1.6137585513406656E9, 2021-02-19 16:15:51.340
251.0, -21344.865234375, 5847.283203125, -17463.1484375, 129704.0859375, 0.0, 0.0, 0.0, 0.0, -0.1380000114440918, -0.6420000195503235, 0.7500000596046448, 192.0, 0.0, 0.0, 0.0, 0.0, 0.0, 0.0, 0.0, 0.0, 0.0, 1.613758551351591E9, 2021-02-19 16:15:51.351
249.0, -21441.201171875, 5854.525390625, -17456.755859375, 129701.828125, 0.0, 0.0, 0.0, 0.0, -0.1380000114440918, -0.6420000195503235, 0.7500000596046448, 192.0, 0.0, 0.0, 0.0, 0.0, 0.0, 0.0, 0.0, 0.0, 0.0, 1.6137585513546424E9, 2021-02-19 16:15:51.354
240.0, -21491.111328125, 5853.81005859375, -17457.986328125, 129673.1015625, 0.0, 0.0, 0.0, 0.0, -0.1380000114440918, -0.6420000195503235, 0.7500000596046448, 192.0, 0.0, 0.0, 0.0, 0.0, 0.0, 0.0, 0.0, 0.0, 0.0, 1.6137585513587165E9, 2021-02-19 16:15:51.358
247.0, -21357.470703125, 5848.087890625, -17457.0703125, 129693.6015625, 0.0, 0.0, 0.0, 0.0, -0.1380000114440918, -0.6420000195503235, 0.7500000596046448, 192.0, 0.0, 0.0, 0.0, 0.0, 0.0, 0.0, 0.0, 0.0, 0.0, 1.6137585513617E9, 2021-02-19 16:15:51.361
252.0, -21472.001953125, 5849.9208984375, -17464.556640625, 129697.890625, 0.0, 0.0, 0.0, 0.0, -0.1380000114440918, -0.6420000195503235, 0.7500000596046448, 192.0, 0.0, 0.0, 0.0, 0.0, 0.0, 0.0, 0.0, 0.0, 0.0, 1.6137585513655717E9, 2021-02-19 16:15:51.365
253.0, -21468.447265625, 5854.32421875, -17460.0859375, 129703.1484375, 0.0, 0.0, 0.0, 0.0, -0.1380000114440918, -0.6420000195503235, 0.7500000596046448, 192.0, 0.0, 0.0, 0.0, 0.0, 0.0, 0.0, 0.0, 0.0, 0.0, 1.613758551369594E9, 2021-02-19 16:15:51.369
254.0, -21361.47265625, 5859.0400390625, -17454.4765625, 129713.2265625, 0.0, 0.0, 0.0, 0.0, -0.1380000114440918, -0.6380000114440918, 0.7580000162124634, 192.0, 251.0, 176.0, 236.0, 16.0, 23.0, 176.0, 0.0, 0.0, 0.0, 1.6137585513727117E9, 2021-02-19 16:15:51.372
255.0, -21324.412109375, 5859.82275390625, -17453.380859375, 129713.8984375, 0.0, 0.0, 0.0, 0.0, -0.1380000114440918, -0.6380000114440918, 0.7580000162124634, 192.0, 0.0, 0.0, 0.0, 0.0, 0.0, 0.0, 0.0, 0.0, 0.0, 1.613758551376634E9, 2021-02-19 16:15:51.376
0.0, -21444.8671875, 5860.38134765625, -17457.427734375, 129709.9375, 0.0, 0.0, 0.0, 0.0, -0.1380000114440918, -0.6380000114440918, 0.7580000162124634, 192.0, 0.0, 0.0, 0.0, 0.0, 0.0, 0.0, 0.0, 0.0, 0.0, 1.613758551379656E9, 2021-02-19 16:15:51.379
1.0, -21472.693359375, 5861.3203125, -17458.767578125, 129712.0, 0.0, 0.0, 0.0, 0.0, -0.1380000114440918, -0.6380000114440918, 0.7580000162124634, 192.0, 0.0, 0.0, 0.0, 0.0, 0.0, 0.0, 0.0, 0.0, 0.0, 1.6137585513846173E9, 2021-02-19 16:15:51.384
2.0, -21373.83203125, 5861.677734375, -17454.275390625, 129719.375, 0.0, 0.0, 0.0, 0.0, -0.1380000114440918, -0.6380000114440918, 0.7580000162124634, 192.0, 0.0, 0.0, 0.0, 0.0, 0.0, 0.0, 0.0, 0.0, 0.0, 1.6137585513876383E9, 2021-02-19 16:15:51.387
3.0, -21320.0546875, 5858.39208984375, -17454.833984375, 129718.546875, 0.0, 0.0, 0.0, 0.0, -0.1380000114440918, -0.6380000114440918, 0.7580000162124634, 192.0, 0.0, 0.0, 0.0, 0.0, 0.0, 0.0, 0.0, 0.0, 0.0, 1.6137585513917234E9, 2021-02-19 16:15:51.391
4.0, -21425.845703125, 5854.234375, -17461.40625, 129709.0234375, 0.0, 0.0, 0.0, 0.0, -0.1380000114440918, -0.6380000114440918, 0.7580000162124634, 192.0, 0.0, 0.0, 0.0, 0.0, 0.0, 0.0, 0.0, 0.0, 0.0, 1.6137585513946667E9, 2021-02-19 16:15:51.394
5.0, -21492.005859375, 5855.240234375, -17463.88671875, 129708.1328125, 0.0, 0.0, 0.0, 0.0, -0.1380000114440918, -0.6380000114440918, 0.7580000162124634, 192.0, 0.0, 0.0, 0.0, 0.0, 0.0, 0.0, 0.0, 0.0, 0.0, 1.613758551419675E9, 2021-02-19 16:15:51.419
6.0, -21395.89453125, 5858.97314453125, -17459.70703125, 129718.1875, 0.0, 0.0, 0.0, 0.0, -0.1380000114440918, -0.6380000114440918, 0.7580000162124634, 192.0, 0.0, 0.0, 0.0, 0.0, 0.0, 0.0, 0.0, 0.0, 0.0, 1.6137585514257E9, 2021-02-19 16:15:51.425
7.0, -21326.3125, 5861.029296875, -17456.17578125, 129723.0625, 0.0, 0.0, 0.0, 0.0, -0.1380000114440918, -0.6380000114440918, 0.7580000162124634, 192.0, 0.0, 0.0, 0.0, 0.0, 0.0, 0.0, 0.0, 0.0, 0.0, 1.6137585514286847E9, 2021-02-19 16:15:51.428
8.0, -21403.494140625, 5861.14111328125, -17456.01953125, 129721.65625, 0.0, 0.0, 0.0, 0.0, -0.13199999928474426, -0.6340000033378601, 0.7700000405311584, 192.0, 251.0, 224.0, 236.0, 48.0, 24.0, 16.0, 0.0, 0.0, 0.0, 1.61375855144369E9, 2021-02-19 16:15:51.443
9.0, -21493.078125, 5863.95751953125, -17456.064453125, 129725.09375, 0.0, 0.0, 0.0, 0.0, -0.13199999928474426, -0.6340000033378601, 0.7700000405311584, 192.0, 0.0, 0.0, 0.0, 0.0, 0.0, 0.0, 0.0, 0.0, 0.0, 1.6137585514466588E9, 2021-02-19 16:15:51.446
10.0, -21411.451171875, 5863.22021484375, -17456.130859375, 129732.3359375, 0.0, 0.0, 0.0, 0.0, -0.13199999928474426, -0.6340000033378601, 0.7700000405311584, 192.0, 0.0, 0.0, 0.0, 0.0, 0.0, 0.0, 0.0, 0.0, 0.0, 1.6137585514506958E9, 2021-02-19 16:15:51.450
11.0, -21328.50390625, 5862.16943359375, -17456.95703125, 129738.0390625, 0.0, 0.0, 0.0, 0.0, -0.13199999928474426, -0.6340000033378601, 0.7700000405311584, 192.0, 0.0, 0.0, 0.0, 0.0, 0.0, 0.0, 0.0, 0.0, 0.0, 1.613758551458698E9, 2021-02-19 16:15:51.458
12.0, -21384.271484375, 5852.6474609375, -17467.26171875, 129727.375, 0.0, 0.0, 0.0, 0.0, -0.13199999928474426, -0.6340000033378601, 0.7700000405311584, 192.0, 0.0, 0.0, 0.0, 0.0, 0.0, 0.0, 0.0, 0.0, 0.0, 1.6137585514627504E9, 2021-02-19 16:15:51.462
13.0, -21492.1171875, 5861.61083984375, -17464.69140625, 129731.1484375, 0.0, 0.0, 0.0, 0.0, -0.13199999928474426, -0.6340000033378601, 0.7700000405311584, 192.0, 0.0, 0.0, 0.0, 0.0, 0.0, 0.0, 0.0, 0.0, 0.0, 1.6137585514687457E9, 2021-02-19 16:15:51.468
14.0, -21427.341796875, 5866.05859375, -17461.2265625, 129739.84375, 0.0, 0.0, 0.0, 0.0, -0.13199999928474426, -0.6340000033378601, 0.7700000405311584, 192.0, 0.0, 0.0, 0.0, 0.0, 0.0, 0.0, 0.0, 0.0, 0.0, 1.613758551472906E9, 2021-02-19 16:15:51.472
15.0, -21340.169921875, 5862.83984375, -17461.896484375, 129742.125, 0.0, 0.0, 0.0, 0.0, -0.13199999928474426, -0.6340000033378601, 0.7700000405311584, 192.0, 0.0, 0.0, 0.0, 0.0, 0.0, 0.0, 0.0, 0.0, 0.0, 1.6137585514777277E9, 2021-02-19 16:15:51.477
16.0, -21354.966796875, 5863.53271484375, -17461.71875, 129743.734375, 0.0, 0.0, 0.0, 0.0, -0.13199999928474426, -0.6340000033378601, 0.7700000405311584, 192.0, 0.0, 0.0, 0.0, 0.0, 0.0, 0.0, 0.0, 0.0, 0.0, 1.6137585514807315E9, 2021-02-19 16:15:51.480
17.0, -21483.109375, 5862.236328125, -17467.126953125, 129738.1484375, 0.0, 0.0, 0.0, 0.0, -0.13199999928474426, -0.6340000033378601, 0.7700000405311584, 192.0, 0.0, 0.0, 0.0, 0.0, 0.0, 0.0, 0.0, 0.0, 0.0, 1.6137585514857657E9, 2021-02-19 16:15:51.485
18.0, -21458.255859375, 5862.4599609375, -17467.9765625, 129741.453125, 0.0, 0.0, 0.0, 0.0, -0.1340000033378601, -0.6320000290870667, 0.7640000581741333, 192.0, 251.0, 208.0, 236.0, 64.0, 23.0, 224.0, 0.0, 0.0, 0.0, 1.613758551488873E9, 2021-02-19 16:15:51.488
19.0, -21361.47265625, 5860.13525390625, -17469.318359375, 129748.3828125, 0.0, 0.0, 0.0, 0.0, -0.1340000033378601, -0.6320000290870667, 0.7640000581741333, 192.0, 0.0, 0.0, 0.0, 0.0, 0.0, 0.0, 0.0, 0.0, 0.0, 1.613758551492718E9, 2021-02-19 16:15:51.492
20.0, -21344.953125, 5862.37060546875, -17467.59765625, 129752.9921875, 0.0, 0.0, 0.0, 0.0, -0.1340000033378601, -0.6320000290870667, 0.7640000581741333, 192.0, 0.0, 0.0, 0.0, 0.0, 0.0, 0.0, 0.0, 0.0, 0.0, 1.6137585514957511E9, 2021-02-19 16:15:51.495
21.0, -21469.275390625, 5864.650390625, -17470.81640625, 129748.5625, 0.0, 0.0, 0.0, 0.0, -0.1340000033378601, -0.6320000290870667, 0.7640000581741333, 192.0, 0.0, 0.0, 0.0, 0.0, 0.0, 0.0, 0.0, 0.0, 0.0, 1.6137585514987657E9, 2021-02-19 16:15:51.498
22.0, -21471.46484375, 5870.37255859375, -17469.921875, 129753.5234375, 0.0, 0.0, 0.0, 0.0, -0.1340000033378601, -0.6320000290870667, 0.7640000581741333, 192.0, 0.0, 0.0, 0.0, 0.0, 0.0, 0.0, 0.0, 0.0, 0.0, 1.6137585515027823E9, 2021-02-19 16:15:51.502
23.0, -21363.4609375, 5874.4404296875, -17463.505859375, 129762.109375, 0.0, 0.0, 0.0, 0.0, -0.1340000033378601, -0.6320000290870667, 0.7640000581741333, 192.0, 0.0, 0.0, 0.0, 0.0, 0.0, 0.0, 0.0, 0.0, 0.0, 1.613758551510774E9, 2021-02-19 16:15:51.510
24.0, -21329.77734375, 5865.94677734375, -17469.33984375, 129756.2109375, 0.0, 0.0, 0.0, 0.0, -0.1340000033378601, -0.6320000290870667, 0.7640000581741333, 192.0, 0.0, 0.0, 0.0, 0.0, 0.0, 0.0, 0.0, 0.0, 0.0, 1.613758551535843E9, 2021-02-19 16:15:51.535
25.0, -21445.873046875, 5870.640625, -17468.087890625, 129757.75, 0.0, 0.0, 0.0, 0.0, -0.1340000033378601, -0.6320000290870667, 0.7640000581741333, 192.0, 0.0, 0.0, 0.0, 0.0, 0.0, 0.0, 0.0, 0.0, 0.0, 1.6137585515388072E9, 2021-02-19 16:15:51.538
26.0, -21475.130859375, 5879.35791015625, -17462.58984375, 129765.28125, 0.0, 0.0, 0.0, 0.0, -0.1340000033378601, -0.6320000290870667, 0.7640000581741333, 192.0, 0.0, 0.0, 0.0, 0.0, 0.0, 0.0, 0.0, 0.0, 0.0, 1.613758551543817E9, 2021-02-19 16:15:51.543
27.0, -21376.693359375, 5875.35693359375, -17464.625, 129770.421875, 0.0, 0.0, 0.0, 0.0, -0.1340000033378601, -0.6320000290870667, 0.7640000581741333, 192.0, 0.0, 0.0, 0.0, 0.0, 0.0, 0.0, 0.0, 0.0, 0.0, 1.613758551548791E9, 2021-02-19 16:15:51.548
28.0, -21329.576171875, 5867.93603515625, -17468.9375, 129767.4921875, 0.0, 0.0, 0.0, 0.0, -0.1380000114440918, -0.6380000114440918, 0.7700000405311584, 192.0, 251.0, 176.0, 236.0, 16.0, 24.0, 16.0, 0.0, 0.0, 0.0, 1.6137585515518322E9, 2021-02-19 16:15:51.551
36.0, -21345.06640625, 5859.6435546875, -17483.689453125, 129778.5625, 0.0, 0.0, 0.0, 0.0, -0.1380000114440918, -0.6380000114440918, 0.7700000405311584, 192.0, 0.0, 0.0, 0.0, 0.0, 0.0, 0.0, 0.0, 0.0, 0.0, 1.6137585515560408E9, 2021-02-19 16:15:51.556
39.0, -21453.44921875, 5861.7001953125, -17482.640625, 129787.296875, 0.0, 0.0, 0.0, 0.0, -0.1380000114440918, -0.6380000114440918, 0.7700000405311584, 192.0, 0.0, 0.0, 0.0, 0.0, 0.0, 0.0, 0.0, 0.0, 0.0, 1.6137585515588632E9, 2021-02-19 16:15:51.558
31.0, -21400.990234375, 5870.97607421875, -17473.654296875, 129770.8046875, 0.0, 0.0, 0.0, 0.0, -0.1380000114440918, -0.6380000114440918, 0.7700000405311584, 192.0, 0.0, 0.0, 0.0, 0.0, 0.0, 0.0, 0.0, 0.0, 0.0, 1.613758551561868E9, 2021-02-19 16:15:51.561
32.0, -21330.357421875, 5866.81884765625, -17476.314453125, 129774.5390625, 0.0, 0.0, 0.0, 0.0, -0.1380000114440918, -0.6380000114440918, 0.7700000405311584, 192.0, 0.0, 0.0, 0.0, 0.0, 0.0, 0.0, 0.0, 0.0, 0.0, 1.613758551565841E9, 2021-02-19 16:15:51.565
37.0, -21395.1328125, 5848.60205078125, -17493.501953125, 129770.0, 0.0, 0.0, 0.0, 0.0, -0.1340000033378601, -0.6380000114440918, 0.7640000581741333, 192.0, 251.0, 208.0, 236.0, 16.0, 23.0, 224.0, 0.0, 0.0, 0.0, 1.6137585515688188E9, 2021-02-19 16:15:51.568
44.0, -21380.962890625, 5859.107421875, -17479.890625, 129800.8203125, 0.0, 0.0, 0.0, 0.0, -0.1340000033378601, -0.6380000114440918, 0.7640000581741333, 192.0, 0.0, 0.0, 0.0, 0.0, 0.0, 0.0, 0.0, 0.0, 0.0, 1.6137585515718715E9, 2021-02-19 16:15:51.571
41.0, -21376.40234375, 5851.865234375, -17485.814453125, 129785.1328125, 0.0, 0.0, 0.0, 0.0, -0.1340000033378601, -0.6380000114440918, 0.7640000581741333, 192.0, 0.0, 0.0, 0.0, 0.0, 0.0, 0.0, 0.0, 0.0, 0.0, 1.613758551575915E9, 2021-02-19 16:15:51.575
45.0, -21359.794921875, 5852.33447265625, -17484.0703125, 129797.890625, 0.0, 0.0, 0.0, 0.0, -0.1340000033378601, -0.6380000114440918, 0.7640000581741333, 192.0, 0.0, 0.0, 0.0, 0.0, 0.0, 0.0, 0.0, 0.0, 0.0, 1.6137585515788696E9, 2021-02-19 16:15:51.578
46.0, -21492.029296875, 5849.09375, -17492.943359375, 129789.8671875, 0.0, 0.0, 0.0, 0.0, -0.1340000033378601, -0.6380000114440918, 0.7640000581741333, 192.0, 0.0, 0.0, 0.0, 0.0, 0.0, 0.0, 0.0, 0.0, 0.0, 1.6137585515820684E9, 2021-02-19 16:15:51.582
47.0, -21502.01953125, 5857.38623046875, -17486.865234375, 129796.8671875, 0.0, 0.0, 0.0, 0.0, -0.13600000739097595, -0.6320000290870667, 0.7620000243186951, 192.0, 251.0, 192.0, 236.0, 64.0, 23.0, 208.0, 0.0, 0.0, 0.0, 1.6137585515850308E9, 2021-02-19 16:15:51.585
48.0, -21392.83203125, 5859.2412109375, -17482.505859375, 129804.9375, 0.0, 0.0, 0.0, 0.0, -0.13600000739097595, -0.6320000290870667, 0.7620000243186951, 192.0, 0.0, 0.0, 0.0, 0.0, 0.0, 0.0, 0.0, 0.0, 0.0, 1.613758551589024E9, 2021-02-19 16:15:51.589
49.0, -21344.751953125, 5858.861328125, -17481.72265625, 129810.2734375, 0.0, 0.0, 0.0, 0.0, -0.13600000739097595, -0.6320000290870667, 0.7620000243186951, 192.0, 0.0, 0.0, 0.0, 0.0, 0.0, 0.0, 0.0, 0.0, 0.0, 1.6137585515918624E9, 2021-02-19 16:15:51.591
50.0, -21455.23828125, 5862.52685546875, -17482.125, 129808.6015625, 0.0, 0.0, 0.0, 0.0, -0.13600000739097595, -0.6320000290870667, 0.7620000243186951, 192.0, 0.0, 0.0, 0.0, 0.0, 0.0, 0.0, 0.0, 0.0, 0.0, 1.6137585515949006E9, 2021-02-19 16:15:51.594
51.0, -21492.564453125, 5873.94873046875, -17476.08984375, 129816.5390625, 0.0, 0.0, 0.0, 0.0, -0.13600000739097595, -0.6320000290870667, 0.7620000243186951, 192.0, 0.0, 0.0, 0.0, 0.0, 0.0, 0.0, 0.0, 0.0, 0.0, 1.6137585515988886E9, 2021-02-19 16:15:51.598
52.0, -21393.63671875, 5876.36279296875, -17472.044921875, 129823.1953125, 0.0, 0.0, 0.0, 0.0, -0.13600000739097595, -0.6320000290870667, 0.7620000243186951, 192.0, 0.0, 0.0, 0.0, 0.0, 0.0, 0.0, 0.0, 0.0, 0.0, 1.613758551602049E9, 2021-02-19 16:15:51.602
66.0, -21350.5859375, 5881.32470703125, -17472.15625, 129854.578125, 0.0, 0.0, 0.0, 0.0, -0.13600000739097595, -0.6320000290870667, 0.7620000243186951, 192.0, 0.0, 0.0, 0.0, 0.0, 0.0, 0.0, 0.0, 0.0, 0.0, 1.6137585516048908E9, 2021-02-19 16:15:51.604
54.0, -21430.271484375, 5864.40478515625, -17483.51171875, 129816.9609375, 0.0, 0.0, 0.0, 0.0, -0.13600000739097595, -0.6320000290870667, 0.7620000243186951, 192.0, 0.0, 0.0, 0.0, 0.0, 0.0, 0.0, 0.0, 0.0, 0.0, 1.613758551608877E9, 2021-02-19 16:15:51.608
64.0, -21442.876953125, 5885.54931640625, -17474.50390625, 129848.0546875, 0.0, 0.0, 0.0, 0.0, -0.13600000739097595, -0.6320000290870667, 0.7620000243186951, 192.0, 0.0, 0.0, 0.0, 0.0, 0.0, 0.0, 0.0, 0.0, 0.0, 1.6137585516119604E9, 2021-02-19 16:15:51.611
56.0, -21404.4765625, 5881.16845703125, -17472.3125, 129836.2734375, 0.0, 0.0, 0.0, 0.0, -0.13600000739097595, -0.6320000290870667, 0.7620000243186951, 192.0, 0.0, 0.0, 0.0, 0.0, 0.0, 0.0, 0.0, 0.0, 0.0, 1.613758551614957E9, 2021-02-19 16:15:51.614
57.0, -21331.990234375, 5875.0439453125, -17475.6875, 129834.9296875, 0.0, 0.0, 0.0, 0.0, -0.1420000046491623, -0.6360000371932983, 0.7600000500679016, 192.0, 251.0, 144.0, 236.0, 32.0, 23.0, 192.0, 0.0, 0.0, 0.0, 1.613758551619082E9, 2021-02-19 16:15:51.619
62.0, -21372.55859375, 5875.93798828125, -17478.9296875, 129841.2109375, 0.0, 0.0, 0.0, 0.0, -0.1420000046491623, -0.6360000371932983, 0.7600000500679016, 192.0, 0.0, 0.0, 0.0, 0.0, 0.0, 0.0, 0.0, 0.0, 0.0, 1.6137585516220176E9, 2021-02-19 16:15:51.622
59.0, -21501.259765625, 5867.6904296875, -17488.517578125, 129824.203125, 0.0, 0.0, 0.0, 0.0, -0.1420000046491623, -0.6360000371932983, 0.7600000500679016, 192.0, 0.0, 0.0, 0.0, 0.0, 0.0, 0.0, 0.0, 0.0, 0.0, 1.6137585516268988E9, 2021-02-19 16:15:51.626
60.0, -21436.931640625, 5868.31640625, -17486.3046875, 129829.6796875, 0.0, 0.0, 0.0, 0.0, -0.1420000046491623, -0.6360000371932983, 0.7600000500679016, 192.0, 0.0, 0.0, 0.0, 0.0, 0.0, 0.0, 0.0, 0.0, 0.0, 1.613758551651933E9, 2021-02-19 16:15:51.651
67.0, -21477.03125, 5883.20263671875, -17473.587890625, 129852.5234375, 0.0, 0.0, 0.0, 0.0, -0.1380000114440918, -0.6420000195503235, 0.7580000162124634, 192.0, 251.0, 176.0, 235.0, 240.0, 23.0, 176.0, 0.0, 0.0, 0.0, 1.6137585516561232E9, 2021-02-19 16:15:51.656
68.0, -21458.58984375, 5889.97509765625, -17465.943359375, 129864.2109375, 0.0, 0.0, 0.0, 0.0, -0.1380000114440918, -0.6420000195503235, 0.7580000162124634, 192.0, 0.0, 0.0, 0.0, 0.0, 0.0, 0.0, 0.0, 0.0, 0.0, 1.6137585516589627E9, 2021-02-19 16:15:51.658
69.0, -21360.51171875, 5883.60498046875, -17467.060546875, 129865.2421875, 0.0, 0.0, 0.0, 0.0, -0.1380000114440918, -0.6420000195503235, 0.7580000162124634, 192.0, 0.0, 0.0, 0.0, 0.0, 0.0, 0.0, 0.0, 0.0, 0.0, 1.6137585516619742E9, 2021-02-19 16:15:51.661
70.0, -21342.361328125, 5875.8486328125, -17472.537109375, 129862.828125, 0.0, 0.0, 0.0, 0.0, -0.1380000114440918, -0.6420000195503235, 0.7580000162124634, 192.0, 0.0, 0.0, 0.0, 0.0, 0.0, 0.0, 0.0, 0.0, 0.0, 1.6137585516659734E9, 2021-02-19 16:15:51.665
71.0, -21467.84375, 5874.99951171875, -17475.3984375, 129857.75, 0.0, 0.0, 0.0, 0.0, -0.1380000114440918, -0.6420000195503235, 0.7580000162124634, 192.0, 0.0, 0.0, 0.0, 0.0, 0.0, 0.0, 0.0, 0.0, 0.0, 1.6137585516689975E9, 2021-02-19 16:15:51.668
72.0, -21490.44140625, 5873.39013671875, -17478.482421875, 129858.9375, 0.0, 0.0, 0.0, 0.0, -0.1380000114440918, -0.6420000195503235, 0.7580000162124634, 192.0, 0.0, 0.0, 0.0, 0.0, 0.0, 0.0, 0.0, 0.0, 0.0, 1.6137585516720743E9, 2021-02-19 16:15:51.672
73.0, -21391.669921875, 5875.6923828125, -17471.486328125, 129871.2109375, 0.0, 0.0, 0.0, 0.0, -0.1380000114440918, -0.6420000195503235, 0.7580000162124634, 192.0, 0.0, 0.0, 0.0, 0.0, 0.0, 0.0, 0.0, 0.0, 0.0, 1.61375855167497E9, 2021-02-19 16:15:51.674
74.0, -21341.35546875, 5873.2783203125, -17470.615234375, 129874.4921875, 0.0, 0.0, 0.0, 0.0, -0.1380000114440918, -0.6420000195503235, 0.7580000162124634, 192.0, 0.0, 0.0, 0.0, 0.0, 0.0, 0.0, 0.0, 0.0, 0.0, 1.613758551701056E9, 2021-02-19 16:15:51.701
75.0, -21446.54296875, 5874.708984375, -17471.375, 129871.6328125, 0.0, 0.0, 0.0, 0.0, -0.1380000114440918, -0.6420000195503235, 0.7580000162124634, 192.0, 0.0, 0.0, 0.0, 0.0, 0.0, 0.0, 0.0, 0.0, 0.0, 1.6137585517080228E9, 2021-02-19 16:15:51.708
76.0, -21503.583984375, 5874.8876953125, -17477.07421875, 129868.125, 0.0, 0.0, 0.0, 0.0, -0.1380000114440918, -0.6420000195503235, 0.7580000162124634, 192.0, 0.0, 0.0, 0.0, 0.0, 0.0, 0.0, 0.0, 0.0, 0.0, 1.6137585517112684E9, 2021-02-19 16:15:51.711
77.0, -21412.232421875, 5870.99853515625, -17478.638671875, 129868.859375, 0.0, 0.0, 0.0, 0.0, -0.1380000114440918, -0.6380000114440918, 0.7580000162124634, 192.0, 251.0, 176.0, 236.0, 16.0, 23.0, 176.0, 0.0, 0.0, 0.0, 1.6137585517150433E9, 2021-02-19 16:15:51.715
78.0, -21350.36328125, 5864.60595703125, -17483.51171875, 129867.7421875, 0.0, 0.0, 0.0, 0.0, -0.1380000114440918, -0.6380000114440918, 0.7580000162124634, 192.0, 0.0, 0.0, 0.0, 0.0, 0.0, 0.0, 0.0, 0.0, 0.0, 1.6137585517180424E9, 2021-02-19 16:15:51.718
79.0, -21423.1171875, 5869.59033203125, -17481.611328125, 129871.6328125, 0.0, 0.0, 0.0, 0.0, -0.1380000114440918, -0.6380000114440918, 0.7580000162124634, 192.0, 0.0, 0.0, 0.0, 0.0, 0.0, 0.0, 0.0, 0.0, 0.0, 1.613758551722185E9, 2021-02-19 16:15:51.722
80.0, -21510.0, 5874.306640625, -17480.3828125, 129873.15625, 0.0, 0.0, 0.0, 0.0, -0.1380000114440918, -0.6380000114440918, 0.7580000162124634, 192.0, 0.0, 0.0, 0.0, 0.0, 0.0, 0.0, 0.0, 0.0, 0.0, 1.6137585517251935E9, 2021-02-19 16:15:51.725
81.0, -21429.869140625, 5871.7138671875, -17481.677734375, 129876.1015625, 0.0, 0.0, 0.0, 0.0, -0.1380000114440918, -0.6380000114440918, 0.7580000162124634, 192.0, 0.0, 0.0, 0.0, 0.0, 0.0, 0.0, 0.0, 0.0, 0.0, 1.6137585517282693E9, 2021-02-19 16:15:51.728
82.0, -21346.25, 5870.640625, -17482.125, 129883.5, 0.0, 0.0, 0.0, 0.0, -0.1380000114440918, -0.6380000114440918, 0.7580000162124634, 192.0, 0.0, 0.0, 0.0, 0.0, 0.0, 0.0, 0.0, 0.0, 0.0, 1.6137585517311428E9, 2021-02-19 16:15:51.731
83.0, -21402.173828125, 5868.4501953125, -17486.08203125, 129880.4609375, 0.0, 0.0, 0.0, 0.0, -0.1380000114440918, -0.6380000114440918, 0.7580000162124634, 192.0, 0.0, 0.0, 0.0, 0.0, 0.0, 0.0, 0.0, 0.0, 0.0, 1.6137585517351897E9, 2021-02-19 16:15:51.735
84.0, -21505.998046875, 5879.53662109375, -17479.01953125, 129888.4609375, 0.0, 0.0, 0.0, 0.0, -0.1380000114440918, -0.6380000114440918, 0.7580000162124634, 192.0, 0.0, 0.0, 0.0, 0.0, 0.0, 0.0, 0.0, 0.0, 0.0, 1.613758551738328E9, 2021-02-19 16:15:51.738
85.0, -21442.498046875, 5881.615234375, -17476.470703125, 129896.3515625, 0.0, 0.0, 0.0, 0.0, -0.1380000114440918, -0.6380000114440918, 0.7580000162124634, 192.0, 0.0, 0.0, 0.0, 0.0, 0.0, 0.0, 0.0, 0.0, 0.0, 1.6137585517411404E9, 2021-02-19 16:15:51.741
86.0, -21351.212890625, 5877.36865234375, -17476.8515625, 129899.125, 0.0, 0.0, 0.0, 0.0, -0.1380000114440918, -0.6380000114440918, 0.7580000162124634, 192.0, 0.0, 0.0, 0.0, 0.0, 0.0, 0.0, 0.0, 0.0, 0.0, 1.6137585517451603E9, 2021-02-19 16:15:51.745
87.0, -21371.0390625, 5877.79345703125, -17474.771484375, 129900.9375, 0.0, 0.0, 0.0, 0.0, -0.1340000033378601, -0.6360000371932983, 0.7600000500679016, 192.0, 251.0, 208.0, 236.0, 32.0, 23.0, 192.0, 0.0, 0.0, 0.0, 1.6137585517482357E9, 2021-02-19 16:15:51.748
88.0, -21496.25390625, 5877.41357421875, -17479.443359375, 129895.6796875, 0.0, 0.0, 0.0, 0.0, -0.1340000033378601, -0.6360000371932983, 0.7600000500679016, 192.0, 0.0, 0.0, 0.0, 0.0, 0.0, 0.0, 0.0, 0.0, 0.0, 1.6137585517791708E9, 2021-02-19 16:15:51.779
89.0, -21456.490234375, 5884.07421875, -17474.16796875, 129906.1875, 0.0, 0.0, 0.0, 0.0, -0.1340000033378601, -0.6360000371932983, 0.7600000500679016, 192.0, 0.0, 0.0, 0.0, 0.0, 0.0, 0.0, 0.0, 0.0, 0.0, 1.6137585517832868E9, 2021-02-19 16:15:51.783
95.0, -21334.896484375, 5885.59423828125, -17471.576171875, 129920.9609375, 0.0, 0.0, 0.0, 0.0, -0.1340000033378601, -0.6360000371932983, 0.7600000500679016, 192.0, 0.0, 0.0, 0.0, 0.0, 0.0, 0.0, 0.0, 0.0, 0.0, 1.613758551786192E9, 2021-02-19 16:15:51.786
91.0, -21346.98828125, 5881.12353515625, -17475.845703125, 129911.015625, 0.0, 0.0, 0.0, 0.0, -0.1340000033378601, -0.6360000371932983, 0.7600000500679016, 192.0, 0.0, 0.0, 0.0, 0.0, 0.0, 0.0, 0.0, 0.0, 0.0, 1.6137585517892263E9, 2021-02-19 16:15:51.789
92.0, -21471.5546875, 5889.17041015625, -17471.240234375, 129912.109375, 0.0, 0.0, 0.0, 0.0, -0.1340000033378601, -0.6360000371932983, 0.7600000500679016, 192.0, 0.0, 0.0, 0.0, 0.0, 0.0, 0.0, 0.0, 0.0, 0.0, 1.613758551827171E9, 2021-02-19 16:15:51.827
93.0, -21466.994140625, 5890.4892578125, -17470.30078125, 129914.65625, 0.0, 0.0, 0.0, 0.0, -0.1340000033378601, -0.6360000371932983, 0.7600000500679016, 192.0, 0.0, 0.0, 0.0, 0.0, 0.0, 0.0, 0.0, 0.0, 0.0, 1.613758551830202E9, 2021-02-19 16:15:51.830
96.0, -21453.337890625, 5888.4326171875, -17473.1171875, 129919.0859375, 0.0, 0.0, 0.0, 0.0, -0.1340000033378601, -0.6360000371932983, 0.7600000500679016, 192.0, 0.0, 0.0, 0.0, 0.0, 0.0, 0.0, 0.0, 0.0, 0.0, 1.613758551834309E9, 2021-02-19 16:15:51.834
97.0, -21476.158203125, 5896.0771484375, -17468.826171875, 129927.1953125, 0.0, 0.0, 0.0, 0.0, -0.1380000114440918, -0.6380000114440918, 0.7640000581741333, 192.0, 251.0, 176.0, 236.0, 16.0, 23.0, 224.0, 0.0, 0.0, 0.0, 1.613758551845166E9, 2021-02-19 16:15:51.845
98.0, -21380.203125, 5893.99853515625, -17468.333984375, 129930.4609375, 0.0, 0.0, 0.0, 0.0, -0.1380000114440918, -0.6380000114440918, 0.7640000581741333, 192.0, 0.0, 0.0, 0.0, 0.0, 0.0, 0.0, 0.0, 0.0, 0.0, 1.6137585518492165E9, 2021-02-19 16:15:51.849
105.0, -21488.564453125, 5897.99951171875, -17467.955078125, 129940.5859375, 0.0, 0.0, 0.0, 0.0, -0.1380000114440918, -0.6380000114440918, 0.7640000581741333, 192.0, 0.0, 0.0, 0.0, 0.0, 0.0, 0.0, 0.0, 0.0, 0.0, 1.6137585518553443E9, 2021-02-19 16:15:51.855
110.0, -21433.421875, 5896.6357421875, -17471.93359375, 129952.6796875, 0.0, 0.0, 0.0, 0.0, -0.1380000114440918, -0.6380000114440918, 0.7640000581741333, 192.0, 0.0, 0.0, 0.0, 0.0, 0.0, 0.0, 0.0, 0.0, 0.0, 1.613758551858208E9, 2021-02-19 16:15:51.858
101.0, -21486.1953125, 5898.35693359375, -17468.021484375, 129930.28125, 0.0, 0.0, 0.0, 0.0, -0.1380000114440918, -0.6380000114440918, 0.7640000581741333, 192.0, 0.0, 0.0, 0.0, 0.0, 0.0, 0.0, 0.0, 0.0, 0.0, 1.6137585518622367E9, 2021-02-19 16:15:51.862
102.0, -21393.546875, 5900.54736328125, -17464.826171875, 129938.84375, 0.0, 0.0, 0.0, 0.0, -0.1380000114440918, -0.6380000114440918, 0.7640000581741333, 192.0, 0.0, 0.0, 0.0, 0.0, 0.0, 0.0, 0.0, 0.0, 0.0, 1.6137585518652084E9, 2021-02-19 16:15:51.865
103.0, -21320.388671875, 5897.32861328125, -17464.958984375, 129943.828125, 0.0, 0.0, 0.0, 0.0, -0.1380000114440918, -0.6380000114440918, 0.7640000581741333, 192.0, 0.0, 0.0, 0.0, 0.0, 0.0, 0.0, 0.0, 0.0, 0.0, 1.613758551869302E9, 2021-02-19 16:15:51.869
108.0, -21383.287109375, 5886.93505859375, -17476.873046875, 129941.90625, 0.0, 0.0, 0.0, 0.0, -0.1380000114440918, -0.6380000114440918, 0.7640000581741333, 192.0, 0.0, 0.0, 0.0, 0.0, 0.0, 0.0, 0.0, 0.0, 0.0, 1.6137585518722596E9, 2021-02-19 16:15:51.872
111.0, -21343.03125, 5893.14892578125, -17473.095703125, 129954.8515625, 0.0, 0.0, 0.0, 0.0, -0.1380000114440918, -0.6380000114440918, 0.7640000581741333, 192.0, 0.0, 0.0, 0.0, 0.0, 0.0, 0.0, 0.0, 0.0, 0.0, 1.6137585518753476E9, 2021-02-19 16:15:51.875
112.0, -21352.107421875, 5894.73583984375, -17468.603515625, 129959.9453125, 0.0, 0.0, 0.0, 0.0, -0.1380000114440918, -0.6380000114440918, 0.7640000581741333, 192.0, 0.0, 0.0, 0.0, 0.0, 0.0, 0.0, 0.0, 0.0, 0.0, 1.6137585518792565E9, 2021-02-19 16:15:51.879
113.0, -21476.13671875, 5895.0712890625, -17470.94921875, 129956.8125, 0.0, 0.0, 0.0, 0.0, -0.1380000114440918, -0.6380000114440918, 0.7640000581741333, 192.0, 0.0, 0.0, 0.0, 0.0, 0.0, 0.0, 0.0, 0.0, 0.0, 1.6137585518822522E9, 2021-02-19 16:15:51.882
114.0, -21451.90625, 5895.09375, -17472.111328125, 129958.71875, 0.0, 0.0, 0.0, 0.0, -0.1380000114440918, -0.6380000114440918, 0.7640000581741333, 192.0, 0.0, 0.0, 0.0, 0.0, 0.0, 0.0, 0.0, 0.0, 0.0, 1.6137585518962603E9, 2021-02-19 16:15:51.896
115.0, -21358.767578125, 5889.52783203125, -17476.873046875, 129958.15625, 0.0, 0.0, 0.0, 0.0, -0.1380000114440918, -0.6380000114440918, 0.7640000581741333, 192.0, 0.0, 0.0, 0.0, 0.0, 0.0, 0.0, 0.0, 0.0, 0.0, 1.6137585518992834E9, 2021-02-19 16:15:51.899
116.0, -21345.154296875, 5883.40380859375, -17482.125, 129952.8828125, 0.0, 0.0, 0.0, 0.0, -0.13199999928474426, -0.64000004529953, 0.7660000324249268, 192.0, 251.0, 224.0, 236.0, 0.0, 23.0, 240.0, 0.0, 0.0, 0.0, 1.6137585519024253E9, 2021-02-19 16:15:51.902
139.0, -21455.974609375, 5895.18310546875, -17478.75, 129981.046875, 0.0, 0.0, 0.0, 0.0, -0.13199999928474426, -0.64000004529953, 0.7660000324249268, 192.0, 0.0, 0.0, 0.0, 0.0, 0.0, 0.0, 0.0, 0.0, 0.0, 1.613758551921394E9, 2021-02-19 16:15:51.921
118.0, -21479.064453125, 5888.8798828125, -17480.091796875, 129952.140625, 0.0, 0.0, 0.0, 0.0, -0.13199999928474426, -0.64000004529953, 0.7660000324249268, 192.0, 0.0, 0.0, 0.0, 0.0, 0.0, 0.0, 0.0, 0.0, 0.0, 1.6137585519242845E9, 2021-02-19 16:15:51.924
119.0, -21375.150390625, 5885.99658203125, -17480.13671875, 129957.578125, 0.0, 0.0, 0.0, 0.0, -0.13199999928474426, -0.64000004529953, 0.7660000324249268, 192.0, 0.0, 0.0, 0.0, 0.0, 0.0, 0.0, 0.0, 0.0, 0.0, 1.6137585519433024E9, 2021-02-19 16:15:51.943
137.0, -21358.701171875, 5887.80712890625, -17480.5390625, 129975.7890625, 0.0, 0.0, 0.0, 0.0, -0.13199999928474426, -0.64000004529953, 0.7660000324249268, 192.0, 0.0, 0.0, 0.0, 0.0, 0.0, 0.0, 0.0, 0.0, 0.0, 1.6137585519464903E9, 2021-02-19 16:15:51.946
135.0, -21442.83203125, 5894.53466796875, -17479.890625, 129976.796875, 0.0, 0.0, 0.0, 0.0, -0.13199999928474426, -0.64000004529953, 0.7660000324249268, 192.0, 0.0, 0.0, 0.0, 0.0, 0.0, 0.0, 0.0, 0.0, 0.0, 1.6137585519503455E9, 2021-02-19 16:15:51.950
122.0, -21488.51953125, 5892.5009765625, -17481.0078125, 129961.7578125, 0.0, 0.0, 0.0, 0.0, -0.13199999928474426, -0.64000004529953, 0.7660000324249268, 192.0, 0.0, 0.0, 0.0, 0.0, 0.0, 0.0, 0.0, 0.0, 0.0, 1.6137585519633913E9, 2021-02-19 16:15:51.963
123.0, -21387.533203125, 5892.8583984375, -17478.1015625, 129968.4140625, 0.0, 0.0, 0.0, 0.0, -0.13199999928474426, -0.64000004529953, 0.7660000324249268, 192.0, 0.0, 0.0, 0.0, 0.0, 0.0, 0.0, 0.0, 0.0, 0.0, 1.613758551968484E9, 2021-02-19 16:15:51.968
128.0, -21337.755859375, 5885.39306640625, -17482.998046875, 129969.1953125, 0.0, 0.0, 0.0, 0.0, -0.13199999928474426, -0.64000004529953, 0.7660000324249268, 192.0, 0.0, 0.0, 0.0, 0.0, 0.0, 0.0, 0.0, 0.0, 0.0, 1.613758551972516E9, 2021-02-19 16:15:51.972
133.0, -21378.28125, 5886.0859375, -17485.478515625, 129972.7734375, 0.0, 0.0, 0.0, 0.0, -0.13199999928474426, -0.64000004529953, 0.7660000324249268, 192.0, 0.0, 0.0, 0.0, 0.0, 0.0, 0.0, 0.0, 0.0, 0.0, 1.6137585519753904E9, 2021-02-19 16:15:51.975
130.0, -21500.96875, 5889.37158203125, -17485.12109375, 129966.984375, 0.0, 0.0, 0.0, 0.0, -0.13199999928474426, -0.64000004529953, 0.7660000324249268, 192.0, 0.0, 0.0, 0.0, 0.0, 0.0, 0.0, 0.0, 0.0, 0.0, 1.6137585519783716E9, 2021-02-19 16:15:51.978
131.0, -21424.951171875, 5891.00341796875, -17484.673828125, 129974.1171875, 0.0, 0.0, 0.0, 0.0, -0.13199999928474426, -0.64000004529953, 0.7660000324249268, 192.0, 0.0, 0.0, 0.0, 0.0, 0.0, 0.0, 0.0, 0.0, 0.0, 1.6137585519834895E9, 2021-02-19 16:15:51.983
140.0, -21348.57421875, 5905.57666015625, -17468.8046875, 129994.4140625, 0.0, 0.0, 0.0, 0.0, -0.13199999928474426, -0.64000004529953, 0.7660000324249268, 192.0, 0.0, 0.0, 0.0, 0.0, 0.0, 0.0, 0.0, 0.0, 0.0, 1.613758551989463E9, 2021-02-19 16:15:51.989
141.0, -21320.0546875, 5907.52099609375, -17468.357421875, 130000.6953125, 0.0, 0.0, 0.0, 0.0, -0.13199999928474426, -0.64000004529953, 0.7660000324249268, 192.0, 0.0, 0.0, 0.0, 0.0, 0.0, 0.0, 0.0, 0.0, 0.0, 1.613758551993408E9, 2021-02-19 16:15:51.993
144.0, -21387.130859375, 5881.92822265625, -17497.279296875, 129975.125, 0.0, 0.0, 0.0, 0.0, -0.13199999928474426, -0.64000004529953, 0.7660000324249268, 192.0, 0.0, 0.0, 0.0, 0.0, 0.0, 0.0, 0.0, 0.0, 0.0, 1.6137585519963984E9, 2021-02-19 16:15:51.996
145.0, -21351.681640625, 5871.5126953125, -17501.974609375, 129965.1484375, 0.0, 0.0, 0.0, 0.0, -0.13199999928474426, -0.64000004529953, 0.7660000324249268, 192.0, 0.0, 0.0, 0.0, 0.0, 0.0, 0.0, 0.0, 0.0, 0.0, 1.6137585520004091E9, 2021-02-19 16:15:52.000
146.0, -21471.330078125, 5861.56591796875, -17511.517578125, 129949.8203125, 0.0, 0.0, 0.0, 0.0, -0.13600000739097595, -0.6360000371932983, 0.7660000324249268, 192.0, 251.0, 192.0, 236.0, 32.0, 23.0, 240.0, 0.0, 0.0, 0.0, 1.613758552003478E9, 2021-02-19 16:15:52.003
147.0, -21515.900390625, 5867.02001953125, -17507.80859375, 129953.2421875, 0.0, 0.0, 0.0, 0.0, -0.13600000739097595, -0.6360000371932983, 0.7660000324249268, 192.0, 0.0, 0.0, 0.0, 0.0, 0.0, 0.0, 0.0, 0.0, 0.0, 1.613758552007555E9, 2021-02-19 16:15:52.007
148.0, -21416.345703125, 5870.3056640625, -17495.759765625, 129962.671875, 0.0, 0.0, 0.0, 0.0, -0.13600000739097595, -0.6360000371932983, 0.7660000324249268, 192.0, 0.0, 0.0, 0.0, 0.0, 0.0, 0.0, 0.0, 0.0, 0.0, 1.613758552010394E9, 2021-02-19 16:15:52.010
149.0, -21349.89453125, 5867.51171875, -17489.435546875, 129966.2890625, 0.0, 0.0, 0.0, 0.0, -0.13600000739097595, -0.6360000371932983, 0.7660000324249268, 192.0, 0.0, 0.0, 0.0, 0.0, 0.0, 0.0, 0.0, 0.0, 0.0, 1.6137585520144281E9, 2021-02-19 16:15:52.014
150.0, -21438.2734375, 5868.2490234375, -17483.578125, 129965.625, 0.0, 0.0, 0.0, 0.0, -0.13600000739097595, -0.6360000371932983, 0.7660000324249268, 192.0, 0.0, 0.0, 0.0, 0.0, 0.0, 0.0, 0.0, 0.0, 0.0, 1.6137585520174243E9, 2021-02-19 16:15:52.017
151.0, -21518.515625, 5869.43359375, -17480.091796875, 129963.8125, 0.0, 0.0, 0.0, 0.0, -0.13600000739097595, -0.6360000371932983, 0.7660000324249268, 192.0, 0.0, 0.0, 0.0, 0.0, 0.0, 0.0, 0.0, 0.0, 0.0, 1.6137585520215814E9, 2021-02-19 16:15:52.021
152.0, -21435.634765625, 5868.2490234375, -17474.4140625, 129967.9453125, 0.0, 0.0, 0.0, 0.0, -0.13600000739097595, -0.6360000371932983, 0.7660000324249268, 192.0, 0.0, 0.0, 0.0, 0.0, 0.0, 0.0, 0.0, 0.0, 0.0, 1.6137585520244114E9, 2021-02-19 16:15:52.024
153.0, -21360.443359375, 5864.494140625, -17470.033203125, 129967.5, 0.0, 0.0, 0.0, 0.0, -0.13600000739097595, -0.6360000371932983, 0.7660000324249268, 192.0, 0.0, 0.0, 0.0, 0.0, 0.0, 0.0, 0.0, 0.0, 0.0, 1.6137585520274596E9, 2021-02-19 16:15:52.027
168.0, -21493.75, 5876.74267578125, -17437.9140625, 129981.2421875, 0.0, 0.0, 0.0, 0.0, -0.13600000739097595, -0.6360000371932983, 0.7660000324249268, 192.0, 0.0, 0.0, 0.0, 0.0, 0.0, 0.0, 0.0, 0.0, 0.0, 1.6137585520314207E9, 2021-02-19 16:15:52.031
162.0, -21370.234375, 5868.78564453125, -17443.009765625, 129973.3515625, 0.0, 0.0, 0.0, 0.0, -0.13600000739097595, -0.6360000371932983, 0.7660000324249268, 192.0, 0.0, 0.0, 0.0, 0.0, 0.0, 0.0, 0.0, 0.0, 0.0, 1.6137585520344415E9, 2021-02-19 16:15:52.034
166.0, -21344.171875, 5879.15673828125, -17429.443359375, 129989.9375, 0.0, 0.0, 0.0, 0.0, -0.1420000046491623, -0.6320000290870667, 0.7600000500679016, 192.0, 251.0, 144.0, 236.0, 64.0, 23.0, 192.0, 0.0, 0.0, 0.0, 1.613758552037483E9, 2021-02-19 16:15:52.037
159.0, -21508.63671875, 5873.904296875, -17451.146484375, 129964.4140625, 0.0, 0.0, 0.0, 0.0, -0.1420000046491623, -0.6320000290870667, 0.7600000500679016, 192.0, 0.0, 0.0, 0.0, 0.0, 0.0, 0.0, 0.0, 0.0, 0.0, 1.6137585520414531E9, 2021-02-19 16:15:52.041
160.0, -21466.525390625, 5873.6806640625, -17447.837890625, 129967.03125, 0.0, 0.0, 0.0, 0.0, -0.1420000046491623, -0.6320000290870667, 0.7600000500679016, 192.0, 0.0, 0.0, 0.0, 0.0, 0.0, 0.0, 0.0, 0.0, 0.0, 1.6137585520445251E9, 2021-02-19 16:15:52.044
163.0, -21498.48828125, 5869.99267578125, -17443.568359375, 129969.9375, 0.0, 0.0, 0.0, 0.0, -0.1420000046491623, -0.6320000290870667, 0.7600000500679016, 192.0, 0.0, 0.0, 0.0, 0.0, 0.0, 0.0, 0.0, 0.0, 0.0, 1.613758552048427E9, 2021-02-19 16:15:52.048
173.0, -21383.5546875, 5895.20556640625, -17429.21875, 130006.640625, 0.0, 0.0, 0.0, 0.0, -0.1420000046491623, -0.6320000290870667, 0.7600000500679016, 192.0, 0.0, 0.0, 0.0, 0.0, 0.0, 0.0, 0.0, 0.0, 0.0, 1.6137585520524747E9, 2021-02-19 16:15:52.052
169.0, -21388.294921875, 5878.19580078125, -17433.7109375, 129990.5, 0.0, 0.0, 0.0, 0.0, -0.1420000046491623, -0.6320000290870667, 0.7600000500679016, 192.0, 0.0, 0.0, 0.0, 0.0, 0.0, 0.0, 0.0, 0.0, 0.0, 1.613758552055562E9, 2021-02-19 16:15:52.055
170.0, -21332.1015625, 5880.6767578125, -17430.359375, 129997.1796875, 0.0, 0.0, 0.0, 0.0, -0.1420000046491623, -0.6320000290870667, 0.7600000500679016, 192.0, 0.0, 0.0, 0.0, 0.0, 0.0, 0.0, 0.0, 0.0, 0.0, 1.613758552059713E9, 2021-02-19 16:15:52.059
171.0, -21428.9296875, 5888.56689453125, -17428.369140625, 129998.0546875, 0.0, 0.0, 0.0, 0.0, -0.1420000046491623, -0.6320000290870667, 0.7600000500679016, 192.0, 0.0, 0.0, 0.0, 0.0, 0.0, 0.0, 0.0, 0.0, 0.0, 1.6137585520626087E9, 2021-02-19 16:15:52.062
174.0, -21321.998046875, 5892.232421875, -17430.58203125, 130004.9609375, 0.0, 0.0, 0.0, 0.0, -0.1420000046491623, -0.6320000290870667, 0.7600000500679016, 192.0, 0.0, 0.0, 0.0, 0.0, 0.0, 0.0, 0.0, 0.0, 0.0, 1.613758552065478E9, 2021-02-19 16:15:52.065
175.0, -21405.75, 5889.818359375, -17434.001953125, 129997.609375, 0.0, 0.0, 0.0, 0.0, -0.1380000114440918, -0.6380000114440918, 0.7580000162124634, 192.0, 251.0, 176.0, 236.0, 16.0, 23.0, 176.0, 0.0, 0.0, 0.0, 1.6137585520694451E9, 2021-02-19 16:15:52.069
176.0, -21488.408203125, 5894.73583984375, -17433.623046875, 130001.4765625, 0.0, 0.0, 0.0, 0.0, -0.1380000114440918, -0.6380000114440918, 0.7580000162124634, 192.0, 0.0, 0.0, 0.0, 0.0, 0.0, 0.0, 0.0, 0.0, 0.0, 1.6137585520824952E9, 2021-02-19 16:15:52.082
177.0, -21411.337890625, 5884.029296875, -17443.435546875, 129997.4765625, 0.0, 0.0, 0.0, 0.0, -0.1380000114440918, -0.6380000114440918, 0.7580000162124634, 192.0, 0.0, 0.0, 0.0, 0.0, 0.0, 0.0, 0.0, 0.0, 0.0, 1.6137585520854752E9, 2021-02-19 16:15:52.085
178.0, -21336.75, 5876.54150390625, -17447.30078125, 129995.8671875, 0.0, 0.0, 0.0, 0.0, -0.1380000114440918, -0.6380000114440918, 0.7580000162124634, 192.0, 0.0, 0.0, 0.0, 0.0, 0.0, 0.0, 0.0, 0.0, 0.0, 1.613758552096662E9, 2021-02-19 16:15:52.096
179.0, -21382.572265625, 5884.52099609375, -17441.53515625, 130002.34375, 0.0, 0.0, 0.0, 0.0, -0.1380000114440918, -0.6380000114440918, 0.7580000162124634, 192.0, 0.0, 0.0, 0.0, 0.0, 0.0, 0.0, 0.0, 0.0, 0.0, 1.6137585521005397E9, 2021-02-19 16:15:52.100
180.0, -21487.044921875, 5896.94873046875, -17437.734375, 130007.015625, 0.0, 0.0, 0.0, 0.0, -0.1380000114440918, -0.6380000114440918, 0.7580000162124634, 192.0, 0.0, 0.0, 0.0, 0.0, 0.0, 0.0, 0.0, 0.0, 0.0, 1.6137585521125686E9, 2021-02-19 16:15:52.112
181.0, -21426.134765625, 5894.98193359375, -17440.462890625, 130007.796875, 0.0, 0.0, 0.0, 0.0, -0.1380000114440918, -0.6380000114440918, 0.7580000162124634, 192.0, 0.0, 0.0, 0.0, 0.0, 0.0, 0.0, 0.0, 0.0, 0.0, 1.6137585521166537E9, 2021-02-19 16:15:52.116
182.0, -21338.560546875, 5884.78955078125, -17445.693359375, 130003.7109375, 0.0, 0.0, 0.0, 0.0, -0.1380000114440918, -0.6380000114440918, 0.7580000162124634, 192.0, 0.0, 0.0, 0.0, 0.0, 0.0, 0.0, 0.0, 0.0, 0.0, 1.6137585521195145E9, 2021-02-19 16:15:52.119
183.0, -21365.16015625, 5882.4873046875, -17446.609375, 130001.515625, 0.0, 0.0, 0.0, 0.0, -0.1380000114440918, -0.6380000114440918, 0.7580000162124634, 192.0, 0.0, 0.0, 0.0, 0.0, 0.0, 0.0, 0.0, 0.0, 0.0, 1.6137585521227791E9, 2021-02-19 16:15:52.122
184.0, -21489.81640625, 5878.79931640625, -17453.44921875, 129994.1875, 0.0, 0.0, 0.0, 0.0, -0.1380000114440918, -0.6380000114440918, 0.7580000162124634, 192.0, 0.0, 0.0, 0.0, 0.0, 0.0, 0.0, 0.0, 0.0, 0.0, 1.6137585521266851E9, 2021-02-19 16:15:52.126
185.0, -21459.171875, 5882.33056640625, -17451.4375, 129999.2578125, 0.0, 0.0, 0.0, 0.0, -0.1380000114440918, -0.6380000114440918, 0.7580000162124634, 192.0, 251.0, 176.0, 236.0, 16.0, 23.0, 176.0, 0.0, 0.0, 0.0, 1.6137585521295717E9, 2021-02-19 16:15:52.129
186.0, -21357.248046875, 5885.97412109375, -17443.322265625, 130007.8203125, 0.0, 0.0, 0.0, 0.0, -0.1380000114440918, -0.6380000114440918, 0.7580000162124634, 192.0, 0.0, 0.0, 0.0, 0.0, 0.0, 0.0, 0.0, 0.0, 0.0, 1.613758552133922E9, 2021-02-19 16:15:52.133
187.0, -21350.810546875, 5882.55419921875, -17443.234375, 130002.4609375, 0.0, 0.0, 0.0, 0.0, -0.1380000114440918, -0.6380000114440918, 0.7580000162124634, 192.0, 0.0, 0.0, 0.0, 0.0, 0.0, 0.0, 0.0, 0.0, 0.0, 1.6137585521365566E9, 2021-02-19 16:15:52.136
188.0, -21477.701171875, 5880.654296875, -17445.693359375, 129994.8828125, 0.0, 0.0, 0.0, 0.0, -0.1380000114440918, -0.6380000114440918, 0.7580000162124634, 192.0, 0.0, 0.0, 0.0, 0.0, 0.0, 0.0, 0.0, 0.0, 0.0, 1.6137585521395857E9, 2021-02-19 16:15:52.139
189.0, -21483.53515625, 5875.75927734375, -17451.1015625, 129993.1328125, 0.0, 0.0, 0.0, 0.0, -0.1380000114440918, -0.6380000114440918, 0.7580000162124634, 192.0, 0.0, 0.0, 0.0, 0.0, 0.0, 0.0, 0.0, 0.0, 0.0, 1.6137585521435585E9, 2021-02-19 16:15:52.143
190.0, -21382.482421875, 5876.56396484375, -17446.5859375, 130000.21875, 0.0, 0.0, 0.0, 0.0, -0.1380000114440918, -0.6380000114440918, 0.7580000162124634, 192.0, 0.0, 0.0, 0.0, 0.0, 0.0, 0.0, 0.0, 0.0, 0.0, 1.6137585521465924E9, 2021-02-19 16:15:52.146
191.0, -21344.037109375, 5874.26171875, -17446.921875, 129999.1953125, 0.0, 0.0, 0.0, 0.0, -0.1380000114440918, -0.6380000114440918, 0.7580000162124634, 192.0, 0.0, 0.0, 0.0, 0.0, 0.0, 0.0, 0.0, 0.0, 0.0, 1.6137585521535568E9, 2021-02-19 16:15:52.153
192.0, -21464.357421875, 5874.5078125, -17450.05078125, 129993.3125, 0.0, 0.0, 0.0, 0.0, -0.1380000114440918, -0.6380000114440918, 0.7580000162124634, 192.0, 0.0, 0.0, 0.0, 0.0, 0.0, 0.0, 0.0, 0.0, 0.0, 1.6137585521695583E9, 2021-02-19 16:15:52.169
193.0, -21498.130859375, 5875.13330078125, -17451.1015625, 129993.609375, 0.0, 0.0, 0.0, 0.0, -0.1380000114440918, -0.6380000114440918, 0.7580000162124634, 192.0, 0.0, 0.0, 0.0, 0.0, 0.0, 0.0, 0.0, 0.0, 0.0, 1.6137585522006955E9, 2021-02-19 16:15:52.200
