%OpenBCI Raw EEG Data
%Number of channels = 8
%Sample Rate = 250 Hz
%Board = OpenBCI_GUI$BoardCytonSerial
Sample Index, EXG Channel 0, EXG Channel 1, EXG Channel 2, EXG Channel 3, EXG Channel 4, EXG Channel 5, EXG Channel 6, EXG Channel 7, Accel Channel 0, Accel Channel 1, Accel Channel 2, Other, Other, Other, Other, Other, Other, Other, Analog Channel 0, Analog Channel 1, Analog Channel 2, Timestamp, Timestamp (Formatted)
23.0, -10233.544921875, 19602.880859375, -13369.583984375, 134714.546875, -187500.015625, -139156.90625, -187500.015625, -187500.015625, 0.0, 0.0, 0.0, 192.0, 0.0, 0.0, 0.0, 0.0, 0.0, 0.0, 0.0, 0.0, 0.0, 1.6137596180374808E9, 2021-02-19 16:33:38.037
231.0, -10263.1826171875, 19723.24609375, -13248.75, 134891.046875, -187500.015625, -136983.515625, -187500.015625, -187500.015625, 0.0, 0.0, 0.0, 192.0, 0.0, 0.0, 0.0, 0.0, 0.0, 0.0, 0.0, 0.0, 0.0, 1.6137596180374885E9, 2021-02-19 16:33:38.037
21.0, -10220.6474609375, 19699.0390625, -13273.60546875, 134827.03125, -187500.015625, -140720.859375, -187500.015625, -187500.015625, 0.0, 0.0, 0.0, 192.0, 0.0, 0.0, 0.0, 0.0, 0.0, 0.0, 0.0, 0.0, 0.0, 1.6137596180374944E9, 2021-02-19 16:33:38.037
233.0, -10177.5087890625, 19636.767578125, -13335.5419921875, 134793.84375, -187500.015625, -135563.03125, -187500.015625, -187500.015625, -0.11600000411272049, -0.6700000166893005, 0.7480000257492065, 192.0, 252.0, 96.0, 235.0, 16.0, 23.0, 96.0, 0.0, 0.0, 0.0, 1.6137596180375E9, 2021-02-19 16:33:38.037
19.0, -10279.8349609375, 19652.61328125, -13321.5048828125, 134764.703125, -187500.015625, -139567.65625, -187500.015625, -187500.015625, -0.11600000411272049, -0.6700000166893005, 0.7480000257492065, 192.0, 0.0, 0.0, 0.0, 0.0, 0.0, 0.0, 0.0, 0.0, 0.0, 1.6137596180375056E9, 2021-02-19 16:33:38.037
10.0, -10031.3056640625, 19519.888671875, -13450.1171875, 134647.21875, -187500.015625, -138938.34375, -187500.015625, -187500.015625, -0.11600000411272049, -0.6700000166893005, 0.7480000257492065, 192.0, 0.0, 0.0, 0.0, 0.0, 0.0, 0.0, 0.0, 0.0, 0.0, 1.6137596180375109E9, 2021-02-19 16:33:38.037
39.0, -10019.6611328125, 19456.455078125, -13511.2041015625, 134571.71875, -187500.015625, -138031.046875, -187500.015625, -187500.015625, -0.11600000411272049, -0.6700000166893005, 0.7480000257492065, 192.0, 0.0, 0.0, 0.0, 0.0, 0.0, 0.0, 0.0, 0.0, 0.0, 1.6137596180375152E9, 2021-02-19 16:33:38.037
17.0, -10167.361328125, 19622.775390625, -13349.8916015625, 134753.390625, -187500.015625, -140576.46875, -187500.015625, -187500.015625, -0.10600000619888306, -0.6640000343322754, 0.7520000338554382, 192.0, 252.0, 176.0, 235.0, 64.0, 23.0, 128.0, 0.0, 0.0, 0.0, 1.6137596180375197E9, 2021-02-19 16:33:38.037
37.0, -10468.349609375, 19779.70703125, -13192.71484375, 134891.640625, -187500.015625, -140373.59375, -187500.015625, -187500.015625, -0.10600000619888306, -0.6640000343322754, 0.7520000338554382, 192.0, 0.0, 0.0, 0.0, 0.0, 0.0, 0.0, 0.0, 0.0, 0.0, 1.613759618037524E9, 2021-02-19 16:33:38.037
15.0, -10368.884765625, 19704.984375, -13273.8955078125, 134819.921875, -187500.015625, -139881.078125, -187500.015625, -187500.015625, -0.10600000619888306, -0.6640000343322754, 0.7520000338554382, 192.0, 0.0, 0.0, 0.0, 0.0, 0.0, 0.0, 0.0, 0.0, 0.0, 1.6137596180375311E9, 2021-02-19 16:33:38.037
35.0, -10060.4306640625, 19484.1484375, -13485.0751953125, 134599.46875, -187500.015625, -138184.421875, -187500.015625, -187500.015625, -0.10600000619888306, -0.6640000343322754, 0.7520000338554382, 192.0, 0.0, 0.0, 0.0, 0.0, 0.0, 0.0, 0.0, 0.0, 0.0, 1.613759618037543E9, 2021-02-19 16:33:38.037
255.0, -10506.3701171875, 19811.3125, -13164.9091796875, 134942.53125, -187500.015625, -140220.671875, -187500.015625, -187500.015625, -0.10600000619888306, -0.6640000343322754, 0.7520000338554382, 192.0, 0.0, 0.0, 0.0, 0.0, 0.0, 0.0, 0.0, 0.0, 0.0, 1.6137596180375488E9, 2021-02-19 16:33:38.037
4.0, -10305.8525390625, 19780.48828125, -13193.6533203125, 134917.96875, -187500.015625, -140891.78125, -187500.015625, -187500.015625, -0.10600000619888306, -0.6640000343322754, 0.7520000338554382, 192.0, 0.0, 0.0, 0.0, 0.0, 0.0, 0.0, 0.0, 0.0, 0.0, 1.6137596180375564E9, 2021-02-19 16:33:38.037
33.0, -10452.099609375, 19742.154296875, -13232.478515625, 134857.765625, -187500.015625, -140584.203125, -187500.015625, -187500.015625, -0.10600000619888306, -0.6640000343322754, 0.7520000338554382, 192.0, 0.0, 0.0, 0.0, 0.0, 0.0, 0.0, 0.0, 0.0, 0.0, 1.6137596180375645E9, 2021-02-19 16:33:38.037
0.0, 0.0, 0.0, 0.0, 0.0, 0.0, 0.0, 0.0, 0.0, -0.10600000619888306, -0.6640000343322754, 0.7520000338554382, 192.0, 0.0, 0.0, 0.0, 0.0, 0.0, 0.0, 0.0, 0.0, 0.0, 1.6137596181438339E9, 2021-02-19 16:33:38.143
31.0, -10108.822265625, 19486.8984375, -13484.494140625, 134594.71875, -187500.015625, -138507.921875, -187500.015625, -187500.015625, -0.10600000619888306, -0.6640000343322754, 0.7520000338554382, 192.0, 0.0, 0.0, 0.0, 0.0, 0.0, 0.0, 0.0, 0.0, 0.0, 1.6137596181499937E9, 2021-02-19 16:33:38.149
28.0, -10511.7119140625, 19796.11328125, -13183.662109375, 134898.0, -187500.015625, -140373.84375, -187500.015625, -187500.015625, -0.10600000619888306, -0.6640000343322754, 0.7520000338554382, 192.0, 0.0, 0.0, 0.0, 0.0, 0.0, 0.0, 0.0, 0.0, 0.0, 1.6137596181650524E9, 2021-02-19 16:33:38.165
43.0, -10019.1240234375, 19454.2421875, -13512.7685546875, 134567.796875, -187500.015625, -137889.765625, -187500.015625, -187500.015625, -0.10600000619888306, -0.6640000343322754, 0.7520000338554382, 192.0, 0.0, 0.0, 0.0, 0.0, 0.0, 0.0, 0.0, 0.0, 0.0, 1.6137596181688924E9, 2021-02-19 16:33:38.168
66.0, -10551.3193359375, 19761.578125, -13215.5126953125, 134872.015625, -187500.015625, -138728.84375, -187500.015625, -187500.015625, -0.1080000028014183, -0.6680000424385071, 0.7460000514984131, 192.0, 252.0, 160.0, 235.0, 32.0, 23.0, 80.0, 0.0, 0.0, 0.0, 1.6137596181720982E9, 2021-02-19 16:33:38.172
41.0, -10532.521484375, 19776.666015625, -13197.1171875, 134883.984375, -187500.015625, -140129.390625, -187500.015625, -187500.015625, -0.1080000028014183, -0.6680000424385071, 0.7460000514984131, 192.0, 0.0, 0.0, 0.0, 0.0, 0.0, 0.0, 0.0, 0.0, 0.0, 1.6137596181830845E9, 2021-02-19 16:33:38.183
64.0, -10014.900390625, 19455.427734375, -13514.35546875, 134573.796875, -187500.015625, -136732.796875, -187500.015625, -187500.015625, -0.1080000028014183, -0.6680000424385071, 0.7460000514984131, 192.0, 0.0, 0.0, 0.0, 0.0, 0.0, 0.0, 0.0, 0.0, 0.0, 1.6137596181859033E9, 2021-02-19 16:33:38.185
47.0, -9978.3544921875, 19499.52734375, -13464.82421875, 134614.25, -187500.015625, -138083.34375, -187500.015625, -187500.015625, -0.1080000028014183, -0.6680000424385071, 0.7460000514984131, 192.0, 0.0, 0.0, 0.0, 0.0, 0.0, 0.0, 0.0, 0.0, 0.0, 1.6137596182069945E9, 2021-02-19 16:33:38.206
48.0, -10203.4365234375, 19559.384765625, -13407.5595703125, 134661.671875, -187500.015625, -137978.75, -187500.015625, -187500.015625, -0.1080000028014183, -0.6680000424385071, 0.7460000514984131, 192.0, 0.0, 0.0, 0.0, 0.0, 0.0, 0.0, 0.0, 0.0, 0.0, 1.6137596182169764E9, 2021-02-19 16:33:38.216
62.0, -10502.771484375, 19771.189453125, -13201.029296875, 134885.421875, -187500.015625, -139002.25, -187500.015625, -187500.015625, -0.1080000028014183, -0.6680000424385071, 0.7460000514984131, 192.0, 0.0, 0.0, 0.0, 0.0, 0.0, 0.0, 0.0, 0.0, 0.0, 1.613759618221023E9, 2021-02-19 16:33:38.221
50.0, -10332.138671875, 19704.537109375, -13262.7197265625, 134818.03125, -187500.015625, -139632.890625, -187500.015625, -187500.015625, -0.1080000028014183, -0.6680000424385071, 0.7460000514984131, 192.0, 0.0, 0.0, 0.0, 0.0, 0.0, 0.0, 0.0, 0.0, 0.0, 1.613759618224094E9, 2021-02-19 16:33:38.224
57.0, -10522.150390625, 19695.8203125, -13279.9306640625, 134797.625, -187500.015625, -138375.375, -187500.015625, -187500.015625, -0.1080000028014183, -0.6680000424385071, 0.7460000514984131, 192.0, 0.0, 0.0, 0.0, 0.0, 0.0, 0.0, 0.0, 0.0, 0.0, 1.613759618227972E9, 2021-02-19 16:33:38.227
60.0, -10052.2275390625, 19458.01953125, -13507.8515625, 134573.796875, -187500.015625, -136813.28125, -187500.015625, -187500.015625, -0.1080000028014183, -0.6680000424385071, 0.7460000514984131, 192.0, 0.0, 0.0, 0.0, 0.0, 0.0, 0.0, 0.0, 0.0, 0.0, 1.613759618231014E9, 2021-02-19 16:33:38.231
55.0, -10101.8037109375, 19482.361328125, -13484.5166015625, 134603.421875, -187500.015625, -138043.234375, -187500.015625, -187500.015625, -0.1080000028014183, -0.6680000424385071, 0.7460000514984131, 192.0, 0.0, 0.0, 0.0, 0.0, 0.0, 0.0, 0.0, 0.0, 0.0, 1.6137596182401228E9, 2021-02-19 16:33:38.240
58.0, -10470.4951171875, 19793.408203125, -13179.1689453125, 134906.828125, -187500.015625, -139273.140625, -187500.015625, -187500.015625, -0.1080000028014183, -0.6680000424385071, 0.7460000514984131, 192.0, 0.0, 0.0, 0.0, 0.0, 0.0, 0.0, 0.0, 0.0, 0.0, 1.6137596182449956E9, 2021-02-19 16:33:38.244
1.0, -10333.45703125, 19982.078125, -13194.5029296875, 135670.859375, -187500.015625, -140601.0, -187500.015625, -187500.015625, -0.11400000751018524, -0.6580000519752502, 0.7520000338554382, 192.0, 252.0, 112.0, 235.0, 112.0, 23.0, 128.0, 0.0, 0.0, 0.0, 1.613759618256248E9, 2021-02-19 16:33:38.256
2.0, -10286.697265625, 19847.611328125, -13330.2890625, 135523.828125, -187500.015625, -139060.171875, -187500.015625, -187500.015625, -0.11400000751018524, -0.6580000519752502, 0.7520000338554382, 192.0, 0.0, 0.0, 0.0, 0.0, 0.0, 0.0, 0.0, 0.0, 0.0, 1.613759618259073E9, 2021-02-19 16:33:38.259
3.0, -10676.421875, 20116.412109375, -13071.76953125, 135776.5, -187500.015625, -140429.515625, -187500.015625, -187500.015625, -0.11400000751018524, -0.6580000519752502, 0.7520000338554382, 192.0, 0.0, 0.0, 0.0, 0.0, 0.0, 0.0, 0.0, 0.0, 0.0, 1.6137596182681105E9, 2021-02-19 16:33:38.268
4.0, -10714.5537109375, 20290.220703125, -12898.54296875, 135960.25, -187500.015625, -142161.203125, -187500.015625, -187500.015625, -0.11400000751018524, -0.6580000519752502, 0.7520000338554382, 192.0, 0.0, 0.0, 0.0, 0.0, 0.0, 0.0, 0.0, 0.0, 0.0, 1.613759618299081E9, 2021-02-19 16:33:38.299
5.0, -10387.9951171875, 20067.775390625, -13115.064453125, 135748.625, -187500.015625, -141035.078125, -187500.015625, -187500.015625, -0.11400000751018524, -0.6580000519752502, 0.7520000338554382, 192.0, 0.0, 0.0, 0.0, 0.0, 0.0, 0.0, 0.0, 0.0, 0.0, 1.61375961830314E9, 2021-02-19 16:33:38.303
6.0, -10239.9599609375, 19897.677734375, -13283.060546875, 135573.03125, -187500.015625, -139191.921875, -187500.015625, -187500.015625, -0.11400000751018524, -0.6580000519752502, 0.7520000338554382, 192.0, 0.0, 0.0, 0.0, 0.0, 0.0, 0.0, 0.0, 0.0, 0.0, 1.6137596183070817E9, 2021-02-19 16:33:38.307
7.0, -10586.1435546875, 20099.42578125, -13088.2197265625, 135757.984375, -187500.015625, -140153.5, -187500.015625, -187500.015625, -0.11400000751018524, -0.6580000519752502, 0.7520000338554382, 192.0, 0.0, 0.0, 0.0, 0.0, 0.0, 0.0, 0.0, 0.0, 0.0, 1.6137596183220828E9, 2021-02-19 16:33:38.322
8.0, -10737.4423828125, 20297.931640625, -12889.490234375, 135966.234375, -187500.015625, -142221.953125, -187500.015625, -187500.015625, -0.12400000542402267, -0.6580000519752502, 0.7540000081062317, 192.0, 252.0, 32.0, 235.0, 112.0, 23.0, 144.0, 0.0, 0.0, 0.0, 1.6137596183262882E9, 2021-02-19 16:33:38.326
9.0, -10445.2158203125, 20131.1640625, -13051.7861328125, 135815.765625, -187500.015625, -141764.859375, -187500.015625, -187500.015625, -0.12400000542402267, -0.6580000519752502, 0.7540000081062317, 192.0, 0.0, 0.0, 0.0, 0.0, 0.0, 0.0, 0.0, 0.0, 0.0, 1.6137596183291175E9, 2021-02-19 16:33:38.329
10.0, -10230.6611328125, 19886.345703125, -13293.498046875, 135572.0, -187500.015625, -139764.5625, -187500.015625, -187500.015625, -0.12400000542402267, -0.6580000519752502, 0.7540000081062317, 192.0, 0.0, 0.0, 0.0, 0.0, 0.0, 0.0, 0.0, 0.0, 0.0, 1.6137596183432217E9, 2021-02-19 16:33:38.343
11.0, -10521.435546875, 20078.056640625, -13109.3203125, 135749.109375, -187500.015625, -140154.578125, -187500.015625, -187500.015625, -0.12400000542402267, -0.6580000519752502, 0.7540000081062317, 192.0, 0.0, 0.0, 0.0, 0.0, 0.0, 0.0, 0.0, 0.0, 0.0, 1.6137596183491452E9, 2021-02-19 16:33:38.349
12.0, -10737.822265625, 20361.3203125, -12828.0009765625, 136037.5625, -187500.015625, -142336.953125, -187500.015625, -187500.015625, -0.12400000542402267, -0.6580000519752502, 0.7540000081062317, 192.0, 0.0, 0.0, 0.0, 0.0, 0.0, 0.0, 0.0, 0.0, 0.0, 1.613759618352127E9, 2021-02-19 16:33:38.352
13.0, -10480.017578125, 20198.9140625, -12983.703125, 135889.265625, -187500.015625, -142291.921875, -187500.015625, -187500.015625, -0.12400000542402267, -0.6580000519752502, 0.7540000081062317, 192.0, 0.0, 0.0, 0.0, 0.0, 0.0, 0.0, 0.0, 0.0, 0.0, 1.6137596183581927E9, 2021-02-19 16:33:38.358
14.0, -10228.470703125, 19899.779296875, -13279.6181640625, 135590.390625, -187500.015625, -140197.15625, -187500.015625, -187500.015625, -0.12400000542402267, -0.6580000519752502, 0.7540000081062317, 192.0, 0.0, 0.0, 0.0, 0.0, 0.0, 0.0, 0.0, 0.0, 0.0, 1.6137596183782203E9, 2021-02-19 16:33:38.378
15.0, -10444.58984375, 19986.4375, -13198.0791015625, 135657.71875, -187500.015625, -139957.8125, -187500.015625, -187500.015625, -0.12400000542402267, -0.6580000519752502, 0.7540000081062317, 192.0, 0.0, 0.0, 0.0, 0.0, 0.0, 0.0, 0.0, 0.0, 0.0, 1.6137596183861616E9, 2021-02-19 16:33:38.386
16.0, -10763.794921875, 20278.462890625, -12911.5966796875, 135948.015625, -187500.015625, -142011.78125, -187500.015625, -187500.015625, -0.12400000542402267, -0.6580000519752502, 0.7540000081062317, 192.0, 0.0, 0.0, 0.0, 0.0, 0.0, 0.0, 0.0, 0.0, 0.0, 1.613759618416268E9, 2021-02-19 16:33:38.416
17.0, -10568.6865234375, 20212.66015625, -12972.482421875, 135902.828125, -187500.015625, -142515.8125, -187500.015625, -187500.015625, -0.12400000542402267, -0.6520000100135803, 0.7520000338554382, 192.0, 252.0, 32.0, 235.0, 160.0, 23.0, 128.0, 0.0, 0.0, 0.0, 1.6137596184312842E9, 2021-02-19 16:33:38.431
18.0, -10276.9072265625, 19924.634765625, -13256.9755859375, 135617.953125, -187500.015625, -140513.140625, -187500.015625, -187500.015625, -0.12400000542402267, -0.6520000100135803, 0.7520000338554382, 192.0, 0.0, 0.0, 0.0, 0.0, 0.0, 0.0, 0.0, 0.0, 0.0, 1.6137596184532444E9, 2021-02-19 16:33:38.453
19.0, -10404.87109375, 19964.3984375, -13221.861328125, 135642.09375, -187500.015625, -139811.15625, -187500.015625, -187500.015625, -0.12400000542402267, -0.6520000100135803, 0.7520000338554382, 192.0, 0.0, 0.0, 0.0, 0.0, 0.0, 0.0, 0.0, 0.0, 0.0, 1.6137596184843292E9, 2021-02-19 16:33:38.484
20.0, -10767.4833984375, 20273.12109375, -12920.3359375, 135942.09375, -187500.015625, -141772.625, -187500.015625, -187500.015625, -0.12400000542402267, -0.6520000100135803, 0.7520000338554382, 192.0, 0.0, 0.0, 0.0, 0.0, 0.0, 0.0, 0.0, 0.0, 0.0, 1.6137596184885104E9, 2021-02-19 16:33:38.488
21.0, -10671.2138671875, 20287.650390625, -12900.46484375, 135975.5625, -187500.015625, -142581.90625, -187500.015625, -187500.015625, -0.12400000542402267, -0.6520000100135803, 0.7520000338554382, 192.0, 0.0, 0.0, 0.0, 0.0, 0.0, 0.0, 0.0, 0.0, 0.0, 1.6137596184952965E9, 2021-02-19 16:33:38.495
22.0, -10384.28515625, 19962.029296875, -13216.072265625, 135658.453125, -187500.015625, -140583.546875, -187500.015625, -187500.015625, -0.12400000542402267, -0.6520000100135803, 0.7520000338554382, 192.0, 0.0, 0.0, 0.0, 0.0, 0.0, 0.0, 0.0, 0.0, 0.0, 1.61375961849931E9, 2021-02-19 16:33:38.499
23.0, -10436.6103515625, 19886.189453125, -13293.8564453125, 135568.25, -187500.015625, -139068.90625, -187500.015625, -187500.015625, -0.12400000542402267, -0.6520000100135803, 0.7520000338554382, 192.0, 0.0, 0.0, 0.0, 0.0, 0.0, 0.0, 0.0, 0.0, 0.0, 1.6137596185293376E9, 2021-02-19 16:33:38.529
24.0, -10840.39453125, 20145.357421875, -13043.6279296875, 135816.890625, -187500.015625, -140453.578125, -187500.015625, -187500.015625, -0.12400000542402267, -0.6520000100135803, 0.7520000338554382, 192.0, 0.0, 0.0, 0.0, 0.0, 0.0, 0.0, 0.0, 0.0, 0.0, 1.61375961853336E9, 2021-02-19 16:33:38.533
25.0, -10834.716796875, 20187.759765625, -12997.0693359375, 135876.578125, -187500.015625, -141660.859375, -187500.015625, -187500.015625, -0.12400000542402267, -0.6520000100135803, 0.7520000338554382, 192.0, 0.0, 0.0, 0.0, 0.0, 0.0, 0.0, 0.0, 0.0, 0.0, 1.6137596185673895E9, 2021-02-19 16:33:38.567
38.0, -10491.751953125, 20211.921875, -12975.2314453125, 135902.46875, -187500.015625, -141682.3125, -187500.015625, -187500.015625, -0.12400000542402267, -0.6520000100135803, 0.7520000338554382, 192.0, 0.0, 0.0, 0.0, 0.0, 0.0, 0.0, 0.0, 0.0, 0.0, 1.6137596185726352E9, 2021-02-19 16:33:38.572
27.0, -10410.8837890625, 19836.703125, -13345.01953125, 135523.203125, -187500.015625, -138283.21875, -187500.015625, -187500.015625, -0.12200000882148743, -0.6520000100135803, 0.7520000338554382, 192.0, 252.0, 48.0, 235.0, 160.0, 23.0, 128.0, 0.0, 0.0, 0.0, 1.6137596185934584E9, 2021-02-19 16:33:38.593
34.0, -10488.1533203125, 20123.744140625, -13060.146484375, 135819.453125, -187500.015625, -141051.03125, -187500.015625, -187500.015625, -0.12200000882148743, -0.6520000100135803, 0.7520000338554382, 192.0, 0.0, 0.0, 0.0, 0.0, 0.0, 0.0, 0.0, 0.0, 0.0, 1.6137596186004224E9, 2021-02-19 16:33:38.600
29.0, -10820.970703125, 20275.22265625, -12914.1669921875, 135957.15625, -187500.015625, -141313.40625, -187500.015625, -187500.015625, -0.12200000882148743, -0.6520000100135803, 0.7520000338554382, 192.0, 0.0, 0.0, 0.0, 0.0, 0.0, 0.0, 0.0, 0.0, 0.0, 1.6137596186215413E9, 2021-02-19 16:33:38.621
30.0, -10501.05078125, 20035.455078125, -13147.943359375, 135729.484375, -187500.015625, -140433.53125, -187500.015625, -187500.015625, -0.12200000882148743, -0.6520000100135803, 0.7520000338554382, 192.0, 0.0, 0.0, 0.0, 0.0, 0.0, 0.0, 0.0, 0.0, 0.0, 1.6137596186514788E9, 2021-02-19 16:33:38.651
31.0, -10311.9541015625, 19885.921875, -13294.638671875, 135575.4375, -187500.015625, -138588.359375, -187500.015625, -187500.015625, -0.12200000882148743, -0.6520000100135803, 0.7520000338554382, 192.0, 0.0, 0.0, 0.0, 0.0, 0.0, 0.0, 0.0, 0.0, 0.0, 1.6137596186555364E9, 2021-02-19 16:33:38.655
43.0, -10184.7734375, 20037.98046875, -13143.65234375, 135735.046875, -187500.015625, -140772.0, -187500.015625, -187500.015625, -0.12200000882148743, -0.6520000100135803, 0.7520000338554382, 192.0, 0.0, 0.0, 0.0, 0.0, 0.0, 0.0, 0.0, 0.0, 0.0, 1.6137596186595552E9, 2021-02-19 16:33:38.659
40.0, -10386.7431640625, 20045.736328125, -13143.8759765625, 135721.046875, -187500.015625, -139515.6875, -187500.015625, -187500.015625, -0.12200000882148743, -0.6520000100135803, 0.7520000338554382, 192.0, 0.0, 0.0, 0.0, 0.0, 0.0, 0.0, 0.0, 0.0, 0.0, 1.613759618663716E9, 2021-02-19 16:33:38.663
41.0, -10691.173828125, 20345.31640625, -12849.5029296875, 136018.203125, -187500.015625, -141875.59375, -187500.015625, -187500.015625, -0.12200000882148743, -0.6520000100135803, 0.7520000338554382, 192.0, 0.0, 0.0, 0.0, 0.0, 0.0, 0.0, 0.0, 0.0, 0.0, 1.6137596186685233E9, 2021-02-19 16:33:38.668
51.0, -10226.146484375, 20124.52734375, -13057.3076171875, 135816.546875, -187500.015625, -142693.421875, -187500.015625, -187500.015625, -0.12200000882148743, -0.6520000100135803, 0.7520000338554382, 192.0, 0.0, 0.0, 0.0, 0.0, 0.0, 0.0, 0.0, 0.0, 0.0, 1.6137596186727135E9, 2021-02-19 16:33:38.672
66.0, -10684.78125, 20260.58203125, -12932.96484375, 135921.640625, -187500.015625, -143822.078125, -187500.015625, -187500.015625, -0.12200000882148743, -0.6520000100135803, 0.7520000338554382, 192.0, 0.0, 0.0, 0.0, 0.0, 0.0, 0.0, 0.0, 0.0, 0.0, 1.6137596186775632E9, 2021-02-19 16:33:38.677
83.0, -10901.03515625, 20257.18359375, -12941.3466796875, 135918.140625, -187500.015625, -143257.125, -187500.015625, -187500.015625, -0.12200000882148743, -0.6520000100135803, 0.7520000338554382, 192.0, 0.0, 0.0, 0.0, 0.0, 0.0, 0.0, 0.0, 0.0, 0.0, 1.613759618701547E9, 2021-02-19 16:33:38.701
56.0, -10188.7294921875, 19879.88671875, -13309.79296875, 135570.203125, -187500.015625, -141315.796875, -187500.015625, -187500.015625, -0.12200000882148743, -0.6520000100135803, 0.7520000338554382, 192.0, 0.0, 0.0, 0.0, 0.0, 0.0, 0.0, 0.0, 0.0, 0.0, 1.6137596187467196E9, 2021-02-19 16:33:38.746
76.0, -10371.365234375, 20073.609375, -13113.34375, 135758.078125, -187500.015625, -143713.171875, -187500.015625, -187500.015625, -0.12200000882148743, -0.6520000100135803, 0.7520000338554382, 192.0, 0.0, 0.0, 0.0, 0.0, 0.0, 0.0, 0.0, 0.0, 0.0, 1.6137596187496173E9, 2021-02-19 16:33:38.749
81.0, -10352.076171875, 19801.587890625, -13383.0390625, 135481.65625, -187500.015625, -141100.40625, -187500.015625, -187500.015625, -0.12200000882148743, -0.6520000100135803, 0.7520000338554382, 192.0, 0.0, 0.0, 0.0, 0.0, 0.0, 0.0, 0.0, 0.0, 0.0, 1.6137596187536345E9, 2021-02-19 16:33:38.753
95.0, -10829.5087890625, 20163.28515625, -13047.2041015625, 135819.859375, -187500.015625, -140278.21875, -187500.015625, -187500.015625, -0.12200000882148743, -0.6520000100135803, 0.7520000338554382, 192.0, 0.0, 0.0, 0.0, 0.0, 0.0, 0.0, 0.0, 0.0, 0.0, 1.6137596187566824E9, 2021-02-19 16:33:38.756
105.0, -10473.1552734375, 20199.47265625, -13007.6865234375, 135878.078125, -187500.015625, -141466.359375, -187500.015625, -187500.015625, -0.12200000882148743, -0.6520000100135803, 0.7520000338554382, 192.0, 0.0, 0.0, 0.0, 0.0, 0.0, 0.0, 0.0, 0.0, 0.0, 1.613759618782847E9, 2021-02-19 16:33:38.782
93.0, -10463.767578125, 19879.619140625, -13318.107421875, 135560.546875, -187500.015625, -139734.703125, -187500.015625, -187500.015625, -0.12200000882148743, -0.6520000100135803, 0.7520000338554382, 192.0, 0.0, 0.0, 0.0, 0.0, 0.0, 0.0, 0.0, 0.0, 0.0, 1.613759618788677E9, 2021-02-19 16:33:38.788
103.0, -10633.88671875, 20080.60546875, -13127.939453125, 135740.640625, -187500.015625, -139645.359375, -187500.015625, -187500.015625, -0.12200000882148743, -0.6520000100135803, 0.7520000338554382, 192.0, 0.0, 0.0, 0.0, 0.0, 0.0, 0.0, 0.0, 0.0, 0.0, 1.6137596187948244E9, 2021-02-19 16:33:38.794
72.0, -10310.166015625, 19995.154296875, -13188.0654296875, 135677.046875, -187500.015625, -143280.171875, -187500.015625, -187500.015625, -0.12200000882148743, -0.6520000100135803, 0.7520000338554382, 192.0, 0.0, 0.0, 0.0, 0.0, 0.0, 0.0, 0.0, 0.0, 0.0, 1.6137596187987068E9, 2021-02-19 16:33:38.798
101.0, -10445.3271484375, 20067.08203125, -13135.962890625, 135747.234375, -187500.015625, -140559.75, -187500.015625, -187500.015625, -0.12200000882148743, -0.6520000100135803, 0.7520000338554382, 192.0, 0.0, 0.0, 0.0, 0.0, 0.0, 0.0, 0.0, 0.0, 0.0, 1.613759618805699E9, 2021-02-19 16:33:38.805
84.0, -10618.53125, 20136.91015625, -13056.3466796875, 135814.96875, -187500.015625, -142951.515625, -187500.015625, -187500.015625, -0.12200000882148743, -0.6520000100135803, 0.7520000338554382, 192.0, 0.0, 0.0, 0.0, 0.0, 0.0, 0.0, 0.0, 0.0, 0.0, 1.613759618811789E9, 2021-02-19 16:33:38.811
85.0, -10359.630859375, 19837.642578125, -13351.27734375, 135516.140625, -187500.015625, -140570.546875, -187500.015625, -187500.015625, -0.12200000882148743, -0.6520000100135803, 0.7520000338554382, 192.0, 0.0, 0.0, 0.0, 0.0, 0.0, 0.0, 0.0, 0.0, 0.0, 1.6137596188147976E9, 2021-02-19 16:33:38.814
111.0, -10445.2158203125, 20013.482421875, -13199.017578125, 135672.671875, -187500.015625, -139798.71875, -187500.015625, -187500.015625, -0.12200000882148743, -0.6520000100135803, 0.7520000338554382, 192.0, 0.0, 0.0, 0.0, 0.0, 0.0, 0.0, 0.0, 0.0, 0.0, 1.6137596188398108E9, 2021-02-19 16:33:38.839
114.0, -10262.8251953125, 19975.8203125, -13230.01953125, 135650.703125, -187500.015625, -140751.953125, -187500.015625, -187500.015625, -0.12200000882148743, -0.6520000100135803, 0.7520000338554382, 192.0, 0.0, 0.0, 0.0, 0.0, 0.0, 0.0, 0.0, 0.0, 0.0, 1.6137596188598104E9, 2021-02-19 16:33:38.859
119.0, -10298.1416015625, 19944.7734375, -13262.98828125, 135615.9375, -187500.015625, -140501.703125, -187500.015625, -187500.015625, -0.12200000882148743, -0.6520000100135803, 0.7520000338554382, 192.0, 0.0, 0.0, 0.0, 0.0, 0.0, 0.0, 0.0, 0.0, 0.0, 1.613759618862864E9, 2021-02-19 16:33:38.862
126.0, -10365.2412109375, 20149.828125, -13059.609375, 135834.59375, -187500.015625, -143302.171875, -187500.015625, -187500.015625, -0.12200000882148743, -0.6480000019073486, 0.7600000500679016, 192.0, 252.0, 48.0, 235.0, 192.0, 23.0, 192.0, 0.0, 0.0, 0.0, 1.6137596188667595E9, 2021-02-19 16:33:38.866
124.0, -10598.458984375, 20174.9296875, -13045.1708984375, 135835.078125, -187500.015625, -142069.453125, -187500.015625, -187500.015625, -0.12200000882148743, -0.6480000019073486, 0.7600000500679016, 192.0, 0.0, 0.0, 0.0, 0.0, 0.0, 0.0, 0.0, 0.0, 0.0, 1.6137596188707514E9, 2021-02-19 16:33:38.870
117.0, -10604.4267578125, 20326.787109375, -12884.5732421875, 136000.09375, -187500.015625, -143376.125, -187500.015625, -187500.015625, -0.12200000882148743, -0.6480000019073486, 0.7600000500679016, 192.0, 0.0, 0.0, 0.0, 0.0, 0.0, 0.0, 0.0, 0.0, 0.0, 1.6137596188908923E9, 2021-02-19 16:33:38.890
150.0, -10754.7421875, 20331.4140625, -12871.6318359375, 136021.203125, -187500.015625, -145599.734375, -187500.015625, -187500.015625, -0.12200000882148743, -0.6480000019073486, 0.7600000500679016, 192.0, 0.0, 0.0, 0.0, 0.0, 0.0, 0.0, 0.0, 0.0, 0.0, 1.6137596188978477E9, 2021-02-19 16:33:38.897
115.0, -10354.5341796875, 20004.095703125, -13205.3427734375, 135662.328125, -187500.015625, -140144.625, -187500.015625, -187500.015625, -0.12200000882148743, -0.6480000019073486, 0.7600000500679016, 192.0, 0.0, 0.0, 0.0, 0.0, 0.0, 0.0, 0.0, 0.0, 0.0, 1.613759618901844E9, 2021-02-19 16:33:38.901
148.0, -10271.8330078125, 19850.203125, -13338.42578125, 135549.78125, -187500.015625, -142574.734375, -187500.015625, -187500.015625, -0.12200000882148743, -0.6480000019073486, 0.7600000500679016, 192.0, 0.0, 0.0, 0.0, 0.0, 0.0, 0.0, 0.0, 0.0, 0.0, 1.6137596189059381E9, 2021-02-19 16:33:38.905
127.0, -10188.3046875, 19937.017578125, -13267.48046875, 135616.4375, -187500.015625, -141445.390625, -187500.015625, -187500.015625, -0.12200000882148743, -0.6480000019073486, 0.7600000500679016, 192.0, 0.0, 0.0, 0.0, 0.0, 0.0, 0.0, 0.0, 0.0, 0.0, 1.6137596189118795E9, 2021-02-19 16:33:38.911
139.0, -10276.4150390625, 19936.66015625, -13244.2802734375, 135641.484375, -187500.015625, -143087.234375, -187500.015625, -187500.015625, -0.12200000882148743, -0.6480000019073486, 0.7600000500679016, 192.0, 0.0, 0.0, 0.0, 0.0, 0.0, 0.0, 0.0, 0.0, 0.0, 1.61375961896587E9, 2021-02-19 16:33:38.965
146.0, -10713.34765625, 20280.7421875, -12907.6181640625, 135974.734375, -187500.015625, -145399.28125, -187500.015625, -187500.015625, -0.12200000882148743, -0.6480000019073486, 0.7600000500679016, 192.0, 0.0, 0.0, 0.0, 0.0, 0.0, 0.0, 0.0, 0.0, 0.0, 1.6137596189708712E9, 2021-02-19 16:33:38.970
135.0, -10260.8583984375, 19875.52734375, -13316.1630859375, 135573.140625, -187500.015625, -142327.828125, -187500.015625, -187500.015625, -0.12200000882148743, -0.6480000019073486, 0.7600000500679016, 192.0, 0.0, 0.0, 0.0, 0.0, 0.0, 0.0, 0.0, 0.0, 0.0, 1.6137596189749248E9, 2021-02-19 16:33:38.974
131.0, -10210.58984375, 19909.5703125, -13292.0009765625, 135595.875, -187500.015625, -141902.1875, -187500.015625, -187500.015625, -0.12200000882148743, -0.6480000019073486, 0.7600000500679016, 192.0, 0.0, 0.0, 0.0, 0.0, 0.0, 0.0, 0.0, 0.0, 0.0, 1.613759619000918E9, 2021-02-19 16:33:39.000
142.0, -10663.123046875, 20263.845703125, -12923.2421875, 135960.53125, -187500.015625, -145261.765625, -187500.015625, -187500.015625, -0.12200000882148743, -0.6480000019073486, 0.7600000500679016, 192.0, 0.0, 0.0, 0.0, 0.0, 0.0, 0.0, 0.0, 0.0, 0.0, 1.613759619003945E9, 2021-02-19 16:33:39.003
133.0, -10736.1904296875, 20290.15234375, -12917.5869140625, 135962.84375, -187500.015625, -144150.6875, -187500.015625, -187500.015625, -0.12200000882148743, -0.6480000019073486, 0.7600000500679016, 192.0, 0.0, 0.0, 0.0, 0.0, 0.0, 0.0, 0.0, 0.0, 0.0, 1.6137596190339458E9, 2021-02-19 16:33:39.033
158.0, -10730.87109375, 20299.31640625, -12907.037109375, 135985.640625, -187500.015625, -145425.078125, -187500.015625, -187500.015625, -0.12200000882148743, -0.6480000019073486, 0.7600000500679016, 192.0, 0.0, 0.0, 0.0, 0.0, 0.0, 0.0, 0.0, 0.0, 0.0, 1.613759619054171E9, 2021-02-19 16:33:39.054
151.0, -10425.92578125, 20145.9609375, -13050.333984375, 135853.5625, -187500.015625, -144847.546875, -187500.015625, -187500.015625, -0.12200000882148743, -0.6480000019073486, 0.7600000500679016, 192.0, 0.0, 0.0, 0.0, 0.0, 0.0, 0.0, 0.0, 0.0, 0.0, 1.61375961907998E9, 2021-02-19 16:33:39.079
152.0, -10220.46875, 19902.57421875, -13289.720703125, 135608.3125, -187500.015625, -142840.0625, -187500.015625, -187500.015625, -0.12200000882148743, -0.6480000019073486, 0.7600000500679016, 192.0, 0.0, 0.0, 0.0, 0.0, 0.0, 0.0, 0.0, 0.0, 0.0, 1.613759619097021E9, 2021-02-19 16:33:39.097
161.0, -10380.73046875, 19968.0859375, -13231.6513671875, 135665.390625, -187500.015625, -143135.53125, -187500.015625, -187500.015625, -0.12200000882148743, -0.6480000019073486, 0.7600000500679016, 192.0, 0.0, 0.0, 0.0, 0.0, 0.0, 0.0, 0.0, 0.0, 0.0, 1.6137596191000645E9, 2021-02-19 16:33:39.100
173.0, -10227.7998046875, 19893.54296875, -13308.630859375, 135615.890625, -187500.015625, -143258.203125, -187500.015625, -187500.015625, -0.12200000882148743, -0.6480000019073486, 0.7600000500679016, 192.0, 0.0, 0.0, 0.0, 0.0, 0.0, 0.0, 0.0, 0.0, 0.0, 1.6137596191211507E9, 2021-02-19 16:33:39.121
205.0, -10490.298828125, 20168.470703125, -13042.5556640625, 135928.078125, -187500.015625, -145980.9375, -187500.015625, -187500.015625, -0.12600000202655792, -0.6480000019073486, 0.7600000500679016, 192.0, 252.0, 16.0, 235.0, 192.0, 23.0, 192.0, 0.0, 0.0, 0.0, 1.6137596191561604E9, 2021-02-19 16:33:39.156
171.0, -10674.8798828125, 20305.486328125, -12904.17578125, 136023.234375, -187500.015625, -146249.140625, -187500.015625, -187500.015625, -0.12600000202655792, -0.6480000019073486, 0.7600000500679016, 192.0, 0.0, 0.0, 0.0, 0.0, 0.0, 0.0, 0.0, 0.0, 0.0, 1.613759619171123E9, 2021-02-19 16:33:39.171
178.0, -10507.3759765625, 20009.03515625, -13200.2919921875, 135717.859375, -187500.015625, -143707.140625, -187500.015625, -187500.015625, -0.12600000202655792, -0.6480000019073486, 0.7600000500679016, 192.0, 0.0, 0.0, 0.0, 0.0, 0.0, 0.0, 0.0, 0.0, 0.0, 1.6137596191742404E9, 2021-02-19 16:33:39.174
164.0, -10265.2392578125, 19966.1640625, -13231.583984375, 135685.65625, -187500.015625, -144080.953125, -187500.015625, -187500.015625, -0.12600000202655792, -0.6480000019073486, 0.7600000500679016, 192.0, 0.0, 0.0, 0.0, 0.0, 0.0, 0.0, 0.0, 0.0, 0.0, 1.6137596191772184E9, 2021-02-19 16:33:39.177
203.0, -10456.0791015625, 20061.517578125, -13156.0126953125, 135798.21875, -187500.015625, -143831.8125, -187500.015625, -187500.015625, -0.12600000202655792, -0.6480000019073486, 0.7600000500679016, 192.0, 0.0, 0.0, 0.0, 0.0, 0.0, 0.0, 0.0, 0.0, 0.0, 1.6137596191975007E9, 2021-02-19 16:33:39.197
201.0, -10408.0673828125, 20157.673828125, -13055.4521484375, 135911.953125, -187500.015625, -145731.53125, -187500.015625, -187500.015625, -0.12600000202655792, -0.6480000019073486, 0.7600000500679016, 192.0, 0.0, 0.0, 0.0, 0.0, 0.0, 0.0, 0.0, 0.0, 0.0, 1.6137596192011344E9, 2021-02-19 16:33:39.201
176.0, -10416.1806640625, 20145.0234375, -13058.6484375, 135875.765625, -187500.015625, -145384.5, -187500.015625, -187500.015625, -0.12600000202655792, -0.6480000019073486, 0.7600000500679016, 192.0, 0.0, 0.0, 0.0, 0.0, 0.0, 0.0, 0.0, 0.0, 0.0, 1.6137596192051983E9, 2021-02-19 16:33:39.205
186.0, -10353.9755859375, 19931.09375, -13280.1767578125, 135654.875, -187500.015625, -143206.296875, -187500.015625, -187500.015625, -0.12600000202655792, -0.6480000019073486, 0.7600000500679016, 192.0, 0.0, 0.0, 0.0, 0.0, 0.0, 0.0, 0.0, 0.0, 0.0, 1.6137596192303362E9, 2021-02-19 16:33:39.230
199.0, -10537.3046875, 20129.109375, -13088.041015625, 135857.671875, -187500.015625, -143988.84375, -187500.015625, -187500.015625, -0.12600000202655792, -0.6480000019073486, 0.7600000500679016, 192.0, 0.0, 0.0, 0.0, 0.0, 0.0, 0.0, 0.0, 0.0, 0.0, 1.613759619233176E9, 2021-02-19 16:33:39.233
213.0, -10601.56640625, 20266.68359375, -12951.3603515625, 136031.546875, -187500.015625, -146307.875, -187500.015625, -187500.015625, -0.12600000202655792, -0.6480000019073486, 0.7600000500679016, 192.0, 0.0, 0.0, 0.0, 0.0, 0.0, 0.0, 0.0, 0.0, 0.0, 1.6137596192463305E9, 2021-02-19 16:33:39.246
192.0, -10657.53515625, 20316.080078125, -12890.7421875, 136056.40625, -187500.015625, -146341.890625, -187500.015625, -187500.015625, -0.12600000202655792, -0.6480000019073486, 0.7600000500679016, 192.0, 0.0, 0.0, 0.0, 0.0, 0.0, 0.0, 0.0, 0.0, 0.0, 1.6137596192813675E9, 2021-02-19 16:33:39.281
197.0, -10380.865234375, 20033.62109375, -13175.1904296875, 135781.34375, -187500.015625, -145111.96875, -187500.015625, -187500.015625, -0.12600000202655792, -0.6480000019073486, 0.7600000500679016, 192.0, 0.0, 0.0, 0.0, 0.0, 0.0, 0.0, 0.0, 0.0, 0.0, 1.6137596192884035E9, 2021-02-19 16:33:39.288
187.0, -10713.6826171875, 20266.572265625, -12951.78515625, 135982.890625, -187500.015625, -145152.015625, -187500.015625, -187500.015625, -0.12600000202655792, -0.6480000019073486, 0.7600000500679016, 192.0, 0.0, 0.0, 0.0, 0.0, 0.0, 0.0, 0.0, 0.0, 0.0, 1.6137596192933235E9, 2021-02-19 16:33:39.293
222.0, -10379.3896484375, 20135.14453125, -13068.0361328125, 135915.96875, -187500.015625, -145323.90625, -187500.015625, -187500.015625, -0.12600000202655792, -0.6480000019073486, 0.7600000500679016, 192.0, 0.0, 0.0, 0.0, 0.0, 0.0, 0.0, 0.0, 0.0, 0.0, 1.6137596193134005E9, 2021-02-19 16:33:39.313
189.0, -10279.5224609375, 19957.6484375, -13244.212890625, 135707.34375, -187500.015625, -144382.65625, -187500.015625, -187500.015625, -0.12600000202655792, -0.6480000019073486, 0.7600000500679016, 192.0, 0.0, 0.0, 0.0, 0.0, 0.0, 0.0, 0.0, 0.0, 0.0, 1.6137596193174376E9, 2021-02-19 16:33:39.317
234.0, -10567.8154296875, 20223.052734375, -13006.0322265625, 136008.28125, -187500.015625, -146003.171875, -187500.015625, -187500.015625, -0.11800000816583633, -0.6440000534057617, 0.7560000419616699, 192.0, 252.0, 80.0, 235.0, 224.0, 23.0, 160.0, 0.0, 0.0, 0.0, 1.613759619326296E9, 2021-02-19 16:33:39.326
252.0, -10209.337890625, 19874.74609375, -13321.884765625, 135696.3125, -187500.015625, -143204.609375, -187500.015625, -187500.015625, -0.11800000816583633, -0.6440000534057617, 0.7560000419616699, 192.0, 0.0, 0.0, 0.0, 0.0, 0.0, 0.0, 0.0, 0.0, 0.0, 1.6137596193313344E9, 2021-02-19 16:33:39.331
206.0, -10228.9404296875, 19876.466796875, -13329.775390625, 135640.015625, -187500.015625, -143829.9375, -187500.015625, -187500.015625, -0.11800000816583633, -0.6440000534057617, 0.7560000419616699, 192.0, 0.0, 0.0, 0.0, 0.0, 0.0, 0.0, 0.0, 0.0, 0.0, 1.6137596193343325E9, 2021-02-19 16:33:39.334
232.0, -10370.4716796875, 19973.853515625, -13247.5654296875, 135748.78125, -187500.015625, -143176.3125, -187500.015625, -187500.015625, -0.11800000816583633, -0.6440000534057617, 0.7560000419616699, 192.0, 0.0, 0.0, 0.0, 0.0, 0.0, 0.0, 0.0, 0.0, 0.0, 1.613759619337554E9, 2021-02-19 16:33:39.337
250.0, -10726.154296875, 20315.701171875, -12890.5634765625, 136119.234375, -187500.015625, -145536.140625, -187500.015625, -187500.015625, -0.11800000816583633, -0.6440000534057617, 0.7560000419616699, 192.0, 0.0, 0.0, 0.0, 0.0, 0.0, 0.0, 0.0, 0.0, 0.0, 1.6137596193473861E9, 2021-02-19 16:33:39.347
248.0, -10218.0771484375, 19871.951171875, -13325.751953125, 135686.484375, -187500.015625, -143118.078125, -187500.015625, -187500.015625, -0.11800000816583633, -0.6440000534057617, 0.7560000419616699, 192.0, 0.0, 0.0, 0.0, 0.0, 0.0, 0.0, 0.0, 0.0, 0.0, 1.6137596193505495E9, 2021-02-19 16:33:39.350
243.0, -10335.625, 20067.775390625, -13152.3466796875, 135875.21875, -187500.015625, -144836.6875, -187500.015625, -187500.015625, -0.11800000816583633, -0.6440000534057617, 0.7560000419616699, 192.0, 0.0, 0.0, 0.0, 0.0, 0.0, 0.0, 0.0, 0.0, 0.0, 1.613759619363403E9, 2021-02-19 16:33:39.363
223.0, -10192.9765625, 19881.697265625, -13318.3759765625, 135659.28125, -187500.015625, -143274.390625, -187500.015625, -187500.015625, -0.11800000816583633, -0.6440000534057617, 0.7560000419616699, 192.0, 0.0, 0.0, 0.0, 0.0, 0.0, 0.0, 0.0, 0.0, 0.0, 1.6137596193675404E9, 2021-02-19 16:33:39.367
246.0, -10687.12890625, 20305.396484375, -12912.4013671875, 136103.140625, -187500.015625, -145929.390625, -187500.015625, -187500.015625, -0.11800000816583633, -0.6440000534057617, 0.7560000419616699, 192.0, 0.0, 0.0, 0.0, 0.0, 0.0, 0.0, 0.0, 0.0, 0.0, 1.613759619370504E9, 2021-02-19 16:33:39.370
241.0, -10630.2880859375, 20211.83203125, -13018.37109375, 135991.5, -187500.015625, -144271.234375, -187500.015625, -187500.015625, -0.11800000816583633, -0.6440000534057617, 0.7560000419616699, 192.0, 0.0, 0.0, 0.0, 0.0, 0.0, 0.0, 0.0, 0.0, 0.0, 1.6137596193733704E9, 2021-02-19 16:33:39.373
238.0, -10654.0927734375, 20193.302734375, -13036.5654296875, 135985.765625, -187500.015625, -145986.59375, -187500.015625, -187500.015625, -0.11800000816583633, -0.6440000534057617, 0.7560000419616699, 192.0, 0.0, 0.0, 0.0, 0.0, 0.0, 0.0, 0.0, 0.0, 0.0, 1.6137596193904667E9, 2021-02-19 16:33:39.390
255.0, -10508.4267578125, 20221.107421875, -12980.529296875, 136040.171875, -187500.015625, -145716.875, -187500.015625, -187500.015625, -0.11800000816583633, -0.6440000534057617, 0.7560000419616699, 192.0, 0.0, 0.0, 0.0, 0.0, 0.0, 0.0, 0.0, 0.0, 0.0, 1.6137596193933785E9, 2021-02-19 16:33:39.393
244.0, -10202.5654296875, 19920.3203125, -13296.91796875, 135723.28125, -187500.015625, -143061.359375, -187500.015625, -187500.015625, -0.11400000751018524, -0.6460000276565552, 0.7580000162124634, 192.0, 252.0, 112.0, 235.0, 208.0, 23.0, 176.0, 0.0, 0.0, 0.0, 1.6137596194184275E9, 2021-02-19 16:33:39.418
6.0, -10663.9052734375, 20199.158203125, -13040.6328125, 136000.484375, -187500.015625, -144357.171875, -187500.015625, -187500.015625, -0.11400000751018524, -0.6460000276565552, 0.7580000162124634, 192.0, 0.0, 0.0, 0.0, 0.0, 0.0, 0.0, 0.0, 0.0, 0.0, 1.613759619435554E9, 2021-02-19 16:33:39.435
28.0, -10632.4560546875, 20264.046875, -12940.6533203125, 136129.578125, -187500.015625, -145507.421875, -187500.015625, -187500.015625, -0.11400000751018524, -0.6460000276565552, 0.7580000162124634, 192.0, 0.0, 0.0, 0.0, 0.0, 0.0, 0.0, 0.0, 0.0, 0.0, 1.6137596194665637E9, 2021-02-19 16:33:39.466
4.0, -10260.322265625, 19975.484375, -13241.0390625, 135801.078125, -187500.015625, -143880.390625, -187500.015625, -187500.015625, -0.11400000751018524, -0.6460000276565552, 0.7580000162124634, 192.0, 0.0, 0.0, 0.0, 0.0, 0.0, 0.0, 0.0, 0.0, 0.0, 1.613759619477503E9, 2021-02-19 16:33:39.477
2.0, -10685.966796875, 20244.935546875, -12971.029296875, 136042.125, -187500.015625, -144945.53125, -187500.015625, -187500.015625, -0.11400000751018524, -0.6460000276565552, 0.7580000162124634, 192.0, 0.0, 0.0, 0.0, 0.0, 0.0, 0.0, 0.0, 0.0, 0.0, 1.6137596194806771E9, 2021-02-19 16:33:39.480
11.0, -10645.21875, 20297.685546875, -12944.54296875, 136121.1875, -187500.015625, -145838.0, -187500.015625, -187500.015625, -0.11400000751018524, -0.6460000276565552, 0.7580000162124634, 192.0, 0.0, 0.0, 0.0, 0.0, 0.0, 0.0, 0.0, 0.0, 0.0, 1.6137596194834888E9, 2021-02-19 16:33:39.483
24.0, -10542.5126953125, 20215.6328125, -12992.9345703125, 136074.3125, -187500.015625, -145526.453125, -187500.015625, -187500.015625, -0.11400000751018524, -0.6460000276565552, 0.7580000162124634, 192.0, 0.0, 0.0, 0.0, 0.0, 0.0, 0.0, 0.0, 0.0, 0.0, 1.6137596194875045E9, 2021-02-19 16:33:39.487
9.0, -10225.4755859375, 19971.484375, -13263.5693359375, 135792.078125, -187500.015625, -142809.328125, -187500.015625, -187500.015625, -0.11400000751018524, -0.6460000276565552, 0.7580000162124634, 192.0, 0.0, 0.0, 0.0, 0.0, 0.0, 0.0, 0.0, 0.0, 0.0, 1.6137596194905465E9, 2021-02-19 16:33:39.490
35.0, -10607.310546875, 20153.583984375, -13075.5693359375, 136008.125, -187500.015625, -143722.3125, -187500.015625, -187500.015625, -0.11400000751018524, -0.6460000276565552, 0.7580000162124634, 192.0, 0.0, 0.0, 0.0, 0.0, 0.0, 0.0, 0.0, 0.0, 0.0, 1.613759619525534E9, 2021-02-19 16:33:39.525
22.0, -10386.8330078125, 20009.458984375, -13206.4609375, 135847.953125, -187500.015625, -142965.78125, -187500.015625, -187500.015625, -0.11400000751018524, -0.6460000276565552, 0.7580000162124634, 192.0, 0.0, 0.0, 0.0, 0.0, 0.0, 0.0, 0.0, 0.0, 0.0, 1.6137596195656152E9, 2021-02-19 16:33:39.565
33.0, -10319.4873046875, 20011.337890625, -13200.42578125, 135889.546875, -187500.015625, -144291.5, -187500.015625, -187500.015625, -0.11400000751018524, -0.6460000276565552, 0.7580000162124634, 192.0, 0.0, 0.0, 0.0, 0.0, 0.0, 0.0, 0.0, 0.0, 0.0, 1.613759619582615E9, 2021-02-19 16:33:39.582
29.0, -10301.29296875, 19978.97265625, -13219.0, 135857.453125, -187500.015625, -143773.859375, -187500.015625, -187500.015625, -0.11400000751018524, -0.6460000276565552, 0.7580000162124634, 192.0, 0.0, 0.0, 0.0, 0.0, 0.0, 0.0, 0.0, 0.0, 0.0, 1.6137596196166573E9, 2021-02-19 16:33:39.616
39.0, -10566.541015625, 20062.142578125, -13175.1904296875, 135922.265625, -187500.015625, -143179.53125, -187500.015625, -187500.015625, -0.11400000751018524, -0.6460000276565552, 0.7580000162124634, 192.0, 0.0, 0.0, 0.0, 0.0, 0.0, 0.0, 0.0, 0.0, 0.0, 1.6137596196217663E9, 2021-02-19 16:33:39.621
31.0, -10658.00390625, 20234.384765625, -12981.490234375, 136087.71875, -187500.015625, -144208.84375, -187500.015625, -187500.015625, -0.11400000751018524, -0.6460000276565552, 0.7580000162124634, 192.0, 0.0, 0.0, 0.0, 0.0, 0.0, 0.0, 0.0, 0.0, 0.0, 1.6137596196718707E9, 2021-02-19 16:33:39.671
45.0, -10486.2314453125, 20218.1796875, -13020.583984375, 136111.234375, -187500.015625, -145264.453125, -187500.015625, -187500.015625, -0.11400000751018524, -0.6460000276565552, 0.7580000162124634, 192.0, 0.0, 0.0, 0.0, 0.0, 0.0, 0.0, 0.0, 0.0, 0.0, 1.613759619676698E9, 2021-02-19 16:33:39.676
37.0, -10380.5966796875, 20070.16796875, -13158.494140625, 135951.984375, -187500.015625, -144486.203125, -187500.015625, -187500.015625, -0.12400000542402267, -0.6500000357627869, 0.7500000596046448, 192.0, 252.0, 32.0, 235.0, 176.0, 23.0, 112.0, 0.0, 0.0, 0.0, 1.613759619730877E9, 2021-02-19 16:33:39.730
40.0, -10730.111328125, 20349.49609375, -12891.0556640625, 136218.765625, -187500.015625, -145360.75, -187500.015625, -187500.015625, -0.12400000542402267, -0.6500000357627869, 0.7500000596046448, 192.0, 0.0, 0.0, 0.0, 0.0, 0.0, 0.0, 0.0, 0.0, 0.0, 1.6137596197348988E9, 2021-02-19 16:33:39.734
41.0, -10417.0078125, 20184.205078125, -13051.6298828125, 136070.125, -187500.015625, -145038.078125, -187500.015625, -187500.015625, -0.12400000542402267, -0.6500000357627869, 0.7500000596046448, 192.0, 0.0, 0.0, 0.0, 0.0, 0.0, 0.0, 0.0, 0.0, 0.0, 1.6137596200321324E9, 2021-02-19 16:33:40.032
42.0, -10178.783203125, 19876.01953125, -13357.5361328125, 135763.34375, -187500.015625, -142871.703125, -187500.015625, -187500.015625, -0.12400000542402267, -0.6500000357627869, 0.7500000596046448, 192.0, 0.0, 0.0, 0.0, 0.0, 0.0, 0.0, 0.0, 0.0, 0.0, 1.6137596202564428E9, 2021-02-19 16:33:40.256
49.0, -10546.916015625, 20219.8125, -13009.4521484375, 136127.375, -187500.015625, -145329.875, -187500.015625, -187500.015625, -0.12400000542402267, -0.6500000357627869, 0.7500000596046448, 192.0, 0.0, 0.0, 0.0, 0.0, 0.0, 0.0, 0.0, 0.0, 0.0, 1.613759620280436E9, 2021-02-19 16:33:40.280
209.0, -10213.0478515625, 19910.330078125, -13284.087890625, 135980.359375, -187500.015625, -142042.921875, -187500.015625, -187500.015625, -0.12400000542402267, -0.6500000357627869, 0.7500000596046448, 192.0, 0.0, 0.0, 0.0, 0.0, 0.0, 0.0, 0.0, 0.0, 0.0, 1.6137596202856212E9, 2021-02-19 16:33:40.285
210.0, -10467.8134765625, 20048.75390625, -13151.7431640625, 136100.75, -187500.015625, -142199.265625, -187500.015625, -187500.015625, -0.12400000542402267, -0.6500000357627869, 0.7500000596046448, 192.0, 0.0, 0.0, 0.0, 0.0, 0.0, 0.0, 0.0, 0.0, 0.0, 1.613759620306502E9, 2021-02-19 16:33:40.306
14.0, -10636.904296875, 20319.9921875, -12903.0361328125, 136332.0, -187500.015625, -143490.65625, -187500.015625, -187500.015625, -0.12400000542402267, -0.6500000357627869, 0.7500000596046448, 192.0, 0.0, 0.0, 0.0, 0.0, 0.0, 0.0, 0.0, 0.0, 0.0, 1.6137596203514996E9, 2021-02-19 16:33:40.351
12.0, -10305.919921875, 19912.296875, -13307.333984375, 135922.515625, -187500.015625, -140580.015625, -187500.015625, -187500.015625, -0.12400000542402267, -0.6500000357627869, 0.7500000596046448, 192.0, 0.0, 0.0, 0.0, 0.0, 0.0, 0.0, 0.0, 0.0, 0.0, 1.61375962035755E9, 2021-02-19 16:33:40.357
248.0, -10616.072265625, 20174.28125, -13061.8447265625, 136191.046875, -187500.015625, -142197.484375, -187500.015625, -187500.015625, -0.12400000542402267, -0.6500000357627869, 0.7500000596046448, 192.0, 0.0, 0.0, 0.0, 0.0, 0.0, 0.0, 0.0, 0.0, 0.0, 1.6137596203687823E9, 2021-02-19 16:33:40.368
214.0, -10395.013671875, 19964.0859375, -13245.3974609375, 136018.265625, -187500.015625, -141922.546875, -187500.015625, -187500.015625, -0.12000000476837158, -0.6420000195503235, 0.7620000243186951, 192.0, 252.0, 64.0, 235.0, 240.0, 23.0, 208.0, 0.0, 0.0, 0.0, 1.6137596203715367E9, 2021-02-19 16:33:40.371
10.0, -10585.025390625, 20254.703125, -12969.912109375, 136274.671875, -187500.015625, -143655.421875, -187500.015625, -187500.015625, -0.12000000476837158, -0.6420000195503235, 0.7620000243186951, 192.0, 0.0, 0.0, 0.0, 0.0, 0.0, 0.0, 0.0, 0.0, 0.0, 1.6137596203748915E9, 2021-02-19 16:33:40.374
246.0, -10305.986328125, 20030.4921875, -13193.0498046875, 136075.5625, -187500.015625, -142442.4375, -187500.015625, -187500.015625, -0.12000000476837158, -0.6420000195503235, 0.7620000243186951, 192.0, 0.0, 0.0, 0.0, 0.0, 0.0, 0.0, 0.0, 0.0, 0.0, 1.6137596203855145E9, 2021-02-19 16:33:40.385
217.0, -10249.548828125, 19947.8359375, -13260.9091796875, 136016.90625, -187500.015625, -142490.40625, -187500.015625, -187500.015625, -0.12000000476837158, -0.6420000195503235, 0.7620000243186951, 192.0, 0.0, 0.0, 0.0, 0.0, 0.0, 0.0, 0.0, 0.0, 0.0, 1.6137596203886569E9, 2021-02-19 16:33:40.388
218.0, -10322.728515625, 19955.099609375, -13258.853515625, 136008.078125, -187500.015625, -141479.3125, -187500.015625, -187500.015625, -0.12000000476837158, -0.6420000195503235, 0.7620000243186951, 192.0, 0.0, 0.0, 0.0, 0.0, 0.0, 0.0, 0.0, 0.0, 0.0, 1.6137596203915484E9, 2021-02-19 16:33:40.391
8.0, -10351.115234375, 19987.17578125, -13237.9765625, 135998.140625, -187500.015625, -140810.515625, -187500.015625, -187500.015625, -0.12000000476837158, -0.6460000276565552, 0.7600000500679016, 192.0, 252.0, 64.0, 235.0, 208.0, 23.0, 192.0, 0.0, 0.0, 0.0, 1.613759620394684E9, 2021-02-19 16:33:40.394
6.0, -10534.82421875, 20237.0234375, -12993.6494140625, 136262.109375, -187500.015625, -143400.421875, -187500.015625, -187500.015625, -0.12000000476837158, -0.6460000276565552, 0.7600000500679016, 192.0, 0.0, 0.0, 0.0, 0.0, 0.0, 0.0, 0.0, 0.0, 0.0, 1.6137596203985229E9, 2021-02-19 16:33:40.398
242.0, -10251.2919921875, 19988.314453125, -13231.5615234375, 136040.09375, -187500.015625, -142051.515625, -187500.015625, -187500.015625, -0.12000000476837158, -0.6460000276565552, 0.7600000500679016, 192.0, 0.0, 0.0, 0.0, 0.0, 0.0, 0.0, 0.0, 0.0, 0.0, 1.6137596204036107E9, 2021-02-19 16:33:40.403
222.0, -10246.59765625, 19925.8203125, -13287.1279296875, 135976.28125, -187500.015625, -141502.828125, -187500.015625, -187500.015625, -0.12000000476837158, -0.6460000276565552, 0.7600000500679016, 192.0, 0.0, 0.0, 0.0, 0.0, 0.0, 0.0, 0.0, 0.0, 0.0, 1.6137596204145353E9, 2021-02-19 16:33:40.414
4.0, -10422.55078125, 19970.478515625, -13261.2890625, 135980.8125, -187500.015625, -140881.1875, -187500.015625, -187500.015625, -0.12000000476837158, -0.6460000276565552, 0.7600000500679016, 192.0, 0.0, 0.0, 0.0, 0.0, 0.0, 0.0, 0.0, 0.0, 0.0, 1.6137596204175456E9, 2021-02-19 16:33:40.417
2.0, -10446.109375, 20221.130859375, -13011.7548828125, 136249.03125, -187500.015625, -143364.515625, -187500.015625, -187500.015625, -0.12000000476837158, -0.6460000276565552, 0.7600000500679016, 192.0, 0.0, 0.0, 0.0, 0.0, 0.0, 0.0, 0.0, 0.0, 0.0, 1.6137596204216225E9, 2021-02-19 16:33:40.421
240.0, -10691.1962890625, 20266.794921875, -12962.267578125, 136295.4375, -187500.015625, -143069.203125, -187500.015625, -187500.015625, -0.12000000476837158, -0.6460000276565552, 0.7600000500679016, 192.0, 0.0, 0.0, 0.0, 0.0, 0.0, 0.0, 0.0, 0.0, 0.0, 1.6137596204245584E9, 2021-02-19 16:33:40.424
226.0, -10213.8974609375, 19893.4765625, -13324.634765625, 135948.671875, -187500.015625, -141352.359375, -187500.015625, -187500.015625, -0.12000000476837158, -0.6460000276565552, 0.7600000500679016, 192.0, 0.0, 0.0, 0.0, 0.0, 0.0, 0.0, 0.0, 0.0, 0.0, 1.6137596204287465E9, 2021-02-19 16:33:40.428
39.0, -10672.80078125, 20320.126953125, -12909.71875, 136294.8125, -187500.015625, -143148.59375, -187500.015625, -187500.015625, -0.12000000476837158, -0.6460000276565552, 0.7600000500679016, 192.0, 0.0, 0.0, 0.0, 0.0, 0.0, 0.0, 0.0, 0.0, 0.0, 1.61375962043155E9, 2021-02-19 16:33:40.431
228.0, -10682.7255859375, 20319.947265625, -12911.4404296875, 136366.3125, -187500.015625, -144135.3125, -187500.015625, -187500.015625, -0.12000000476837158, -0.6460000276565552, 0.7600000500679016, 192.0, 0.0, 0.0, 0.0, 0.0, 0.0, 0.0, 0.0, 0.0, 0.0, 1.613759620435577E9, 2021-02-19 16:33:40.435
229.0, -10382.83203125, 20121.59765625, -13101.5634765625, 136180.765625, -187500.015625, -143266.734375, -187500.015625, -187500.015625, -0.12000000476837158, -0.6460000276565552, 0.7600000500679016, 192.0, 0.0, 0.0, 0.0, 0.0, 0.0, 0.0, 0.0, 0.0, 0.0, 1.61375962043971E9, 2021-02-19 16:33:40.439
37.0, -10277.7568359375, 19921.080078125, -13302.908203125, 135902.09375, -187500.015625, -140007.75, -187500.015625, -187500.015625, -0.12200000882148743, -0.6440000534057617, 0.7600000500679016, 192.0, 252.0, 48.0, 235.0, 224.0, 23.0, 192.0, 0.0, 0.0, 0.0, 1.6137596204546921E9, 2021-02-19 16:33:40.454
254.0, -10389.58203125, 20163.060546875, -13064.4150390625, 136199.546875, -187500.015625, -143140.5, -187500.015625, -187500.015625, -0.11800000816583633, -0.6460000276565552, 0.7580000162124634, 192.0, 252.0, 80.0, 235.0, 208.0, 23.0, 176.0, 0.0, 0.0, 0.0, 1.613759620461756E9, 2021-02-19 16:33:40.461
19.0, -10359.1171875, 20113.150390625, -13114.1259765625, 136119.953125, -187500.015625, -142399.203125, -187500.015625, -187500.015625, -0.11800000816583633, -0.6460000276565552, 0.7580000162124634, 192.0, 0.0, 0.0, 0.0, 0.0, 0.0, 0.0, 0.0, 0.0, 0.0, 1.6137596204665956E9, 2021-02-19 16:33:40.466
34.0, -10707.4462890625, 20244.443359375, -12992.6884765625, 136216.625, -187500.015625, -142141.265625, -187500.015625, -187500.015625, -0.11800000816583633, -0.6460000276565552, 0.7580000162124634, 192.0, 0.0, 0.0, 0.0, 0.0, 0.0, 0.0, 0.0, 0.0, 0.0, 1.613759620470704E9, 2021-02-19 16:33:40.470
27.0, -10502.3916015625, 20171.30859375, -13065.1083984375, 136164.4375, -187500.015625, -142764.078125, -187500.015625, -187500.015625, -0.12400000542402267, -0.6520000100135803, 0.7600000500679016, 192.0, 252.0, 32.0, 235.0, 160.0, 23.0, 192.0, 0.0, 0.0, 0.0, 1.6137596204747362E9, 2021-02-19 16:33:40.474
17.0, -10615.4912109375, 20169.408203125, -13061.7109375, 136157.59375, -187500.015625, -141478.09375, -187500.015625, -187500.015625, -0.12600000202655792, -0.6480000019073486, 0.7560000419616699, 192.0, 252.0, 16.0, 235.0, 192.0, 23.0, 160.0, 0.0, 0.0, 0.0, 1.6137596204776413E9, 2021-02-19 16:33:40.477
42.0, -10577.716796875, 20173.208984375, -13057.978515625, 136128.75, -187500.015625, -141327.921875, -187500.015625, -187500.015625, -0.12600000202655792, -0.6480000019073486, 0.7560000419616699, 192.0, 0.0, 0.0, 0.0, 0.0, 0.0, 0.0, 0.0, 0.0, 0.0, 1.6137596204816248E9, 2021-02-19 16:33:40.481
25.0, -10485.5830078125, 20051.705078125, -13183.0361328125, 136035.375, -187500.015625, -140649.703125, -187500.015625, -187500.015625, -0.12600000202655792, -0.6480000019073486, 0.7560000419616699, 192.0, 0.0, 0.0, 0.0, 0.0, 0.0, 0.0, 0.0, 0.0, 0.0, 1.61375962048467E9, 2021-02-19 16:33:40.484
30.0, -10706.57421875, 20309.12890625, -12935.3564453125, 136281.984375, -187500.015625, -142605.84375, -187500.015625, -187500.015625, -0.12600000202655792, -0.6480000019073486, 0.7560000419616699, 192.0, 0.0, 0.0, 0.0, 0.0, 0.0, 0.0, 0.0, 0.0, 0.0, 1.6137596204886248E9, 2021-02-19 16:33:40.488
40.0, -10322.236328125, 20135.232421875, -13086.9677734375, 136119.09375, -187500.015625, -141970.453125, -187500.015625, -187500.015625, -0.12600000202655792, -0.6480000019073486, 0.7560000419616699, 192.0, 0.0, 0.0, 0.0, 0.0, 0.0, 0.0, 0.0, 0.0, 0.0, 1.6137596204917123E9, 2021-02-19 16:33:40.491
43.0, -10677.2041015625, 20344.9375, -12890.138671875, 136308.640625, -187500.015625, -143190.671875, -187500.015625, -187500.015625, -0.12600000202655792, -0.6480000019073486, 0.7560000419616699, 192.0, 0.0, 0.0, 0.0, 0.0, 0.0, 0.0, 0.0, 0.0, 0.0, 1.613759620495657E9, 2021-02-19 16:33:40.495
44.0, -10371.6337890625, 20104.7890625, -13125.7265625, 136079.421875, -187500.015625, -142283.6875, -187500.015625, -187500.015625, -0.12600000202655792, -0.6480000019073486, 0.7560000419616699, 192.0, 0.0, 0.0, 0.0, 0.0, 0.0, 0.0, 0.0, 0.0, 0.0, 1.6137596204986873E9, 2021-02-19 16:33:40.498
48.0, -10459.7890625, 20145.044921875, -13088.041015625, 136108.390625, -187500.015625, -142427.8125, -187500.015625, -187500.015625, -0.12600000202655792, -0.6480000019073486, 0.7560000419616699, 192.0, 0.0, 0.0, 0.0, 0.0, 0.0, 0.0, 0.0, 0.0, 0.0, 1.613759620502954E9, 2021-02-19 16:33:40.502
46.0, -10540.12109375, 20058.4765625, -13177.0009765625, 136002.96875, -187500.015625, -140797.046875, -187500.015625, -187500.015625, -0.12600000202655792, -0.6480000019073486, 0.7560000419616699, 192.0, 0.0, 0.0, 0.0, 0.0, 0.0, 0.0, 0.0, 0.0, 0.0, 1.6137596205058656E9, 2021-02-19 16:33:40.505
49.0, -10217.18359375, 19898.9296875, -13330.8037109375, 135859.671875, -187500.015625, -140317.9375, -187500.015625, -187500.015625, -0.12600000202655792, -0.6480000019073486, 0.7560000419616699, 192.0, 0.0, 0.0, 0.0, 0.0, 0.0, 0.0, 0.0, 0.0, 0.0, 1.6137596205087175E9, 2021-02-19 16:33:40.508
50.0, -10466.740234375, 20065.47265625, -13173.5146484375, 136002.3125, -187500.015625, -140458.359375, -187500.015625, -187500.015625, -0.12600000202655792, -0.6480000019073486, 0.7560000419616699, 192.0, 0.0, 0.0, 0.0, 0.0, 0.0, 0.0, 0.0, 0.0, 0.0, 1.61375962051168E9, 2021-02-19 16:33:40.511
56.0, -10562.7412109375, 20245.962890625, -13007.9775390625, 136191.28125, -187500.015625, -142882.265625, -187500.015625, -187500.015625, -0.12600000202655792, -0.6480000019073486, 0.7560000419616699, 192.0, 0.0, 0.0, 0.0, 0.0, 0.0, 0.0, 0.0, 0.0, 0.0, 1.6137596205157225E9, 2021-02-19 16:33:40.515
52.0, -10491.953125, 20214.828125, -13026.373046875, 136167.140625, -187500.015625, -142824.765625, -187500.015625, -187500.015625, -0.12600000202655792, -0.6480000019073486, 0.7560000419616699, 192.0, 0.0, 0.0, 0.0, 0.0, 0.0, 0.0, 0.0, 0.0, 0.0, 1.613759620518906E9, 2021-02-19 16:33:40.518
53.0, -10207.482421875, 19908.4296875, -13330.6025390625, 135866.390625, -187500.015625, -140723.5625, -187500.015625, -187500.015625, -0.12600000202655792, -0.6480000019073486, 0.7560000419616699, 192.0, 0.0, 0.0, 0.0, 0.0, 0.0, 0.0, 0.0, 0.0, 0.0, 1.613759620521831E9, 2021-02-19 16:33:40.521
54.0, -10387.66015625, 19976.177734375, -13273.91796875, 135911.03125, -187500.015625, -140204.625, -187500.015625, -187500.015625, -0.12600000202655792, -0.6480000019073486, 0.7560000419616699, 192.0, 0.0, 0.0, 0.0, 0.0, 0.0, 0.0, 0.0, 0.0, 0.0, 1.6137596205256715E9, 2021-02-19 16:33:40.525
57.0, -10244.4296875, 19972.2890625, -13275.86328125, 135924.390625, -187500.015625, -140885.5625, -187500.015625, -187500.015625, -0.13199999928474426, -0.6440000534057617, 0.7580000162124634, 192.0, 251.0, 224.0, 235.0, 224.0, 23.0, 176.0, 0.0, 0.0, 0.0, 1.613759620528705E9, 2021-02-19 16:33:40.528
58.0, -10312.625, 19964.376953125, -13283.9091796875, 135898.484375, -187500.015625, -139829.625, -187500.015625, -187500.015625, -0.13199999928474426, -0.6440000534057617, 0.7580000162124634, 192.0, 0.0, 0.0, 0.0, 0.0, 0.0, 0.0, 0.0, 0.0, 0.0, 1.6137596205318651E9, 2021-02-19 16:33:40.531
59.0, -10679.1494140625, 20251.619140625, -12998.65625, 136178.515625, -187500.015625, -141643.359375, -187500.015625, -187500.015625, -0.13199999928474426, -0.6440000534057617, 0.7580000162124634, 192.0, 0.0, 0.0, 0.0, 0.0, 0.0, 0.0, 0.0, 0.0, 0.0, 1.6137596205357046E9, 2021-02-19 16:33:40.535
60.0, -10618.8662109375, 20277.79296875, -12963.20703125, 136221.546875, -187500.015625, -142867.078125, -187500.015625, -187500.015625, -0.13199999928474426, -0.6440000534057617, 0.7580000162124634, 192.0, 0.0, 0.0, 0.0, 0.0, 0.0, 0.0, 0.0, 0.0, 0.0, 1.6137596205388565E9, 2021-02-19 16:33:40.538
61.0, -10296.9345703125, 20029.576171875, -13200.4033203125, 135985.90625, -187500.015625, -141346.859375, -187500.015625, -187500.015625, -0.13199999928474426, -0.6440000534057617, 0.7580000162124634, 192.0, 0.0, 0.0, 0.0, 0.0, 0.0, 0.0, 0.0, 0.0, 0.0, 1.6137596205417144E9, 2021-02-19 16:33:40.541
66.0, -10235.869140625, 19909.369140625, -13309.0556640625, 135853.828125, -187500.015625, -139936.46875, -187500.015625, -187500.015625, -0.13199999928474426, -0.6440000534057617, 0.7580000162124634, 192.0, 0.0, 0.0, 0.0, 0.0, 0.0, 0.0, 0.0, 0.0, 0.0, 1.613759620545718E9, 2021-02-19 16:33:40.545
63.0, -10655.2998046875, 20181.2109375, -13052.412109375, 136110.296875, -187500.015625, -141363.84375, -187500.015625, -187500.015625, -0.13199999928474426, -0.6440000534057617, 0.7580000162124634, 192.0, 0.0, 0.0, 0.0, 0.0, 0.0, 0.0, 0.0, 0.0, 0.0, 1.6137596205488293E9, 2021-02-19 16:33:40.548
64.0, -10682.9931640625, 20318.115234375, -12910.5234375, 136256.703125, -187500.015625, -142985.5625, -187500.015625, -187500.015625, -0.13199999928474426, -0.6440000534057617, 0.7580000162124634, 192.0, 0.0, 0.0, 0.0, 0.0, 0.0, 0.0, 0.0, 0.0, 0.0, 1.6137596205517457E9, 2021-02-19 16:33:40.551
67.0, -10581.6728515625, 20166.056640625, -13060.9287109375, 136094.671875, -187500.015625, -140909.796875, -187500.015625, -187500.015625, -0.1300000101327896, -0.6540000438690186, 0.7580000162124634, 192.0, 251.0, 240.0, 235.0, 144.0, 23.0, 176.0, 0.0, 0.0, 0.0, 1.6137596205557773E9, 2021-02-19 16:33:40.555
68.0, -10709.279296875, 20324.931640625, -12903.6396484375, 136259.890625, -187500.015625, -142726.1875, -187500.015625, -187500.015625, -0.1300000101327896, -0.6540000438690186, 0.7580000162124634, 192.0, 0.0, 0.0, 0.0, 0.0, 0.0, 0.0, 0.0, 0.0, 0.0, 1.6137596205587664E9, 2021-02-19 16:33:40.558
69.0, -10413.9453125, 20109.328125, -13113.1201171875, 136057.5, -187500.015625, -141970.03125, -187500.015625, -187500.015625, -0.1300000101327896, -0.6540000438690186, 0.7580000162124634, 192.0, 0.0, 0.0, 0.0, 0.0, 0.0, 0.0, 0.0, 0.0, 0.0, 1.6137596205629249E9, 2021-02-19 16:33:40.562
70.0, -10232.8515625, 19856.595703125, -13365.4267578125, 135796.828125, -187500.015625, -139961.046875, -187500.015625, -187500.015625, -0.1300000101327896, -0.6540000438690186, 0.7580000162124634, 192.0, 0.0, 0.0, 0.0, 0.0, 0.0, 0.0, 0.0, 0.0, 0.0, 1.6137596205657227E9, 2021-02-19 16:33:40.565
71.0, -10545.2392578125, 20089.232421875, -13141.39453125, 136006.40625, -187500.015625, -140479.71875, -187500.015625, -187500.015625, -0.1300000101327896, -0.6540000438690186, 0.7580000162124634, 192.0, 0.0, 0.0, 0.0, 0.0, 0.0, 0.0, 0.0, 0.0, 0.0, 1.6137596205697875E9, 2021-02-19 16:33:40.569
72.0, -10731.5859375, 20386.48828125, -12846.396484375, 136304.90625, -187500.015625, -142737.4375, -187500.015625, -187500.015625, -0.1300000101327896, -0.6540000438690186, 0.7580000162124634, 192.0, 0.0, 0.0, 0.0, 0.0, 0.0, 0.0, 0.0, 0.0, 0.0, 1.6137596205729702E9, 2021-02-19 16:33:40.572
73.0, -10443.94140625, 20225.779296875, -13001.47265625, 136158.375, -187500.015625, -142512.265625, -187500.015625, -187500.015625, -0.1300000101327896, -0.6540000438690186, 0.7580000162124634, 192.0, 0.0, 0.0, 0.0, 0.0, 0.0, 0.0, 0.0, 0.0, 0.0, 1.6137596205757923E9, 2021-02-19 16:33:40.575
74.0, -10191.27734375, 19911.759765625, -13311.201171875, 135841.890625, -187500.015625, -140394.921875, -187500.015625, -187500.015625, -0.1300000101327896, -0.6540000438690186, 0.7580000162124634, 192.0, 0.0, 0.0, 0.0, 0.0, 0.0, 0.0, 0.0, 0.0, 0.0, 1.6137596205797656E9, 2021-02-19 16:33:40.579
75.0, -10438.9794921875, 20010.041015625, -13221.01171875, 135916.0625, -187500.015625, -140304.9375, -187500.015625, -187500.015625, -0.1300000101327896, -0.6540000438690186, 0.7580000162124634, 192.0, 0.0, 0.0, 0.0, 0.0, 0.0, 0.0, 0.0, 0.0, 0.0, 1.6137596205827582E9, 2021-02-19 16:33:40.582
76.0, -10734.5146484375, 20314.515625, -12922.5712890625, 136218.5, -187500.015625, -142413.703125, -187500.015625, -187500.015625, -0.1300000101327896, -0.6540000438690186, 0.7580000162124634, 192.0, 0.0, 0.0, 0.0, 0.0, 0.0, 0.0, 0.0, 0.0, 0.0, 1.613759620585776E9, 2021-02-19 16:33:40.585
77.0, -10524.5869140625, 20237.3359375, -12995.5048828125, 136155.484375, -187500.015625, -142710.3125, -187500.015625, -187500.015625, -0.12200000882148743, -0.6480000019073486, 0.7600000500679016, 192.0, 252.0, 48.0, 235.0, 192.0, 23.0, 192.0, 0.0, 0.0, 0.0, 1.61375962058986E9, 2021-02-19 16:33:40.589
78.0, -10227.7333984375, 19924.34375, -13303.51171875, 135843.4375, -187500.015625, -140595.0625, -187500.015625, -187500.015625, -0.12200000882148743, -0.6480000019073486, 0.7600000500679016, 192.0, 0.0, 0.0, 0.0, 0.0, 0.0, 0.0, 0.0, 0.0, 0.0, 1.613759620593084E9, 2021-02-19 16:33:40.593
79.0, -10376.9755859375, 19940.125, -13293.38671875, 135839.96875, -187500.015625, -139879.71875, -187500.015625, -187500.015625, -0.12200000882148743, -0.6480000019073486, 0.7600000500679016, 192.0, 0.0, 0.0, 0.0, 0.0, 0.0, 0.0, 0.0, 0.0, 0.0, 1.6137596205958743E9, 2021-02-19 16:33:40.595
80.0, -10731.876953125, 20258.525390625, -12984.1728515625, 136150.1875, -187500.015625, -141846.640625, -187500.015625, -187500.015625, -0.12200000882148743, -0.6480000019073486, 0.7600000500679016, 192.0, 0.0, 0.0, 0.0, 0.0, 0.0, 0.0, 0.0, 0.0, 0.0, 1.6137596205998683E9, 2021-02-19 16:33:40.599
81.0, -10591.5302734375, 20273.27734375, -12966.6044921875, 136178.203125, -187500.015625, -142737.8125, -187500.015625, -187500.015625, -0.12200000882148743, -0.6480000019073486, 0.7600000500679016, 192.0, 0.0, 0.0, 0.0, 0.0, 0.0, 0.0, 0.0, 0.0, 0.0, 1.6137596206030333E9, 2021-02-19 16:33:40.603
82.0, -10271.453125, 19980.0234375, -13256.796875, 135888.234375, -187500.015625, -140973.828125, -187500.015625, -187500.015625, -0.12200000882148743, -0.6480000019073486, 0.7600000500679016, 192.0, 0.0, 0.0, 0.0, 0.0, 0.0, 0.0, 0.0, 0.0, 0.0, 1.613759620606855E9, 2021-02-19 16:33:40.606
83.0, -10297.515625, 19966.1640625, -13276.6455078125, 135858.75, -187500.015625, -139937.609375, -187500.015625, -187500.015625, -0.12200000882148743, -0.6480000019073486, 0.7600000500679016, 192.0, 0.0, 0.0, 0.0, 0.0, 0.0, 0.0, 0.0, 0.0, 0.0, 1.6137596206100223E9, 2021-02-19 16:33:40.610
84.0, -10670.5439453125, 20237.24609375, -13016.671875, 136119.734375, -187500.015625, -141618.28125, -187500.015625, -187500.015625, -0.12200000882148743, -0.6480000019073486, 0.7600000500679016, 192.0, 0.0, 0.0, 0.0, 0.0, 0.0, 0.0, 0.0, 0.0, 0.0, 1.6137596206138513E9, 2021-02-19 16:33:40.613
85.0, -10633.037109375, 20291.830078125, -12961.3740234375, 136186.671875, -187500.015625, -142939.640625, -187500.015625, -187500.015625, -0.12200000882148743, -0.6480000019073486, 0.7600000500679016, 192.0, 0.0, 0.0, 0.0, 0.0, 0.0, 0.0, 0.0, 0.0, 0.0, 1.6137596206168575E9, 2021-02-19 16:33:40.616
86.0, -10320.515625, 19970.568359375, -13275.37109375, 135873.640625, -187500.015625, -141371.453125, -187500.015625, -187500.015625, -0.12600000202655792, -0.6520000100135803, 0.7560000419616699, 192.0, 252.0, 16.0, 235.0, 160.0, 23.0, 160.0, 0.0, 0.0, 0.0, 1.6137596206199257E9, 2021-02-19 16:33:40.619
87.0, -10279.208984375, 19857.244140625, -13390.169921875, 135750.203125, -187500.015625, -139761.921875, -187500.015625, -187500.015625, -0.12600000202655792, -0.6520000100135803, 0.7560000419616699, 192.0, 0.0, 0.0, 0.0, 0.0, 0.0, 0.0, 0.0, 0.0, 0.0, 1.613759620624002E9, 2021-02-19 16:33:40.624
88.0, -10659.61328125, 20169.453125, -13087.8173828125, 136046.125, -187500.015625, -141077.71875, -187500.015625, -187500.015625, -0.12600000202655792, -0.6520000100135803, 0.7560000419616699, 192.0, 0.0, 0.0, 0.0, 0.0, 0.0, 0.0, 0.0, 0.0, 0.0, 1.6137596206268525E9, 2021-02-19 16:33:40.626
89.0, -10694.482421875, 20361.298828125, -12895.81640625, 136247.40625, -187500.015625, -142725.046875, -187500.015625, -187500.015625, -0.12600000202655792, -0.6520000100135803, 0.7560000419616699, 192.0, 0.0, 0.0, 0.0, 0.0, 0.0, 0.0, 0.0, 0.0, 0.0, 1.613759620629846E9, 2021-02-19 16:33:40.629
90.0, -10356.814453125, 20116.525390625, -13134.1083984375, 136015.140625, -187500.015625, -141577.265625, -187500.015625, -187500.015625, -0.12600000202655792, -0.6520000100135803, 0.7560000419616699, 192.0, 0.0, 0.0, 0.0, 0.0, 0.0, 0.0, 0.0, 0.0, 0.0, 1.6137596206338952E9, 2021-02-19 16:33:40.633
91.0, -10209.60546875, 19899.7578125, -13346.4716796875, 135790.0625, -187500.015625, -139704.8125, -187500.015625, -187500.015625, -0.12600000202655792, -0.6520000100135803, 0.7560000419616699, 192.0, 0.0, 0.0, 0.0, 0.0, 0.0, 0.0, 0.0, 0.0, 0.0, 1.6137596206370351E9, 2021-02-19 16:33:40.637
92.0, -10564.037109375, 20147.884765625, -13104.6484375, 136018.1875, -187500.015625, -140583.140625, -187500.015625, -187500.015625, -0.12600000202655792, -0.6520000100135803, 0.7560000419616699, 192.0, 0.0, 0.0, 0.0, 0.0, 0.0, 0.0, 0.0, 0.0, 0.0, 1.6137596206410053E9, 2021-02-19 16:33:40.641
93.0, -10712.162109375, 20348.580078125, -12902.521484375, 136223.5, -187500.015625, -142718.515625, -187500.015625, -187500.015625, -0.12600000202655792, -0.6520000100135803, 0.7560000419616699, 192.0, 0.0, 0.0, 0.0, 0.0, 0.0, 0.0, 0.0, 0.0, 0.0, 1.6137596206438565E9, 2021-02-19 16:33:40.643
94.0, -10409.1396484375, 20160.669921875, -13079.369140625, 136051.4375, -187500.015625, -142137.125, -187500.015625, -187500.015625, -0.12600000202655792, -0.6520000100135803, 0.7560000419616699, 192.0, 0.0, 0.0, 0.0, 0.0, 0.0, 0.0, 0.0, 0.0, 0.0, 1.6137596206478343E9, 2021-02-19 16:33:40.647
95.0, -10202.3193359375, 19912.341796875, -13319.806640625, 135801.890625, -187500.015625, -140025.921875, -187500.015625, -187500.015625, -0.12600000202655792, -0.6520000100135803, 0.7560000419616699, 192.0, 0.0, 0.0, 0.0, 0.0, 0.0, 0.0, 0.0, 0.0, 0.0, 1.6137596206508574E9, 2021-02-19 16:33:40.650
96.0, -10495.8203125, 20082.326171875, -13153.375, 135954.609375, -187500.015625, -140359.25, -187500.015625, -187500.015625, -0.12600000202655792, -0.6480000019073486, 0.7540000081062317, 192.0, 252.0, 16.0, 235.0, 192.0, 23.0, 144.0, 0.0, 0.0, 0.0, 1.6137596206549633E9, 2021-02-19 16:33:40.654
97.0, -10738.9619140625, 20318.091796875, -12918.5478515625, 136195.078125, -187500.015625, -142457.8125, -187500.015625, -187500.015625, -0.12600000202655792, -0.6480000019073486, 0.7540000081062317, 192.0, 0.0, 0.0, 0.0, 0.0, 0.0, 0.0, 0.0, 0.0, 0.0, 1.6137596206579077E9, 2021-02-19 16:33:40.657
98.0, -10498.546875, 20174.75, -13053.552734375, 136066.6875, -187500.015625, -142338.75, -187500.015625, -187500.015625, -0.12600000202655792, -0.6480000019073486, 0.7540000081062317, 192.0, 0.0, 0.0, 0.0, 0.0, 0.0, 0.0, 0.0, 0.0, 0.0, 1.6137596206610036E9, 2021-02-19 16:33:40.661
99.0, -10229.3876953125, 19920.388671875, -13303.0205078125, 135811.828125, -187500.015625, -140172.015625, -187500.015625, -187500.015625, -0.12600000202655792, -0.6480000019073486, 0.7540000081062317, 192.0, 0.0, 0.0, 0.0, 0.0, 0.0, 0.0, 0.0, 0.0, 0.0, 1.6137596206638627E9, 2021-02-19 16:33:40.663
100.0, -10433.4365234375, 20031.7890625, -13198.2353515625, 135903.140625, -187500.015625, -139869.640625, -187500.015625, -187500.015625, -0.12600000202655792, -0.6480000019073486, 0.7540000081062317, 192.0, 0.0, 0.0, 0.0, 0.0, 0.0, 0.0, 0.0, 0.0, 0.0, 1.6137596206678648E9, 2021-02-19 16:33:40.667
101.0, -10743.208984375, 20300.814453125, -12936.25, 136169.53125, -187500.015625, -141929.859375, -187500.015625, -187500.015625, -0.12600000202655792, -0.6480000019073486, 0.7540000081062317, 192.0, 0.0, 0.0, 0.0, 0.0, 0.0, 0.0, 0.0, 0.0, 0.0, 1.613759620670914E9, 2021-02-19 16:33:40.670
102.0, -10562.2939453125, 20219.744140625, -13014.50390625, 136103.1875, -187500.015625, -142399.359375, -187500.015625, -187500.015625, -0.12600000202655792, -0.6480000019073486, 0.7540000081062317, 192.0, 0.0, 0.0, 0.0, 0.0, 0.0, 0.0, 0.0, 0.0, 0.0, 1.6137596206749527E9, 2021-02-19 16:33:40.674
103.0, -10265.1728515625, 19931.005859375, -13300.3154296875, 135815.203125, -187500.015625, -140468.640625, -187500.015625, -187500.015625, -0.12600000202655792, -0.6480000019073486, 0.7540000081062317, 192.0, 0.0, 0.0, 0.0, 0.0, 0.0, 0.0, 0.0, 0.0, 0.0, 1.613759620678089E9, 2021-02-19 16:33:40.678
104.0, -10371.90234375, 19967.6171875, -13269.984375, 135828.21875, -187500.015625, -139813.59375, -187500.015625, -187500.015625, -0.12600000202655792, -0.6480000019073486, 0.7540000081062317, 192.0, 0.0, 0.0, 0.0, 0.0, 0.0, 0.0, 0.0, 0.0, 0.0, 1.6137596206810603E9, 2021-02-19 16:33:40.681
105.0, -10727.8310546875, 20264.314453125, -12982.853515625, 136113.71875, -187500.015625, -141723.171875, -187500.015625, -187500.015625, -0.12600000202655792, -0.6480000019073486, 0.7540000081062317, 192.0, 0.0, 0.0, 0.0, 0.0, 0.0, 0.0, 0.0, 0.0, 0.0, 1.613759620684896E9, 2021-02-19 16:33:40.684
106.0, -10619.6708984375, 20287.42578125, -12959.02734375, 136147.515625, -187500.015625, -142708.96875, -187500.015625, -187500.015625, -0.12200000882148743, -0.6420000195503235, 0.7640000581741333, 192.0, 252.0, 48.0, 235.0, 240.0, 23.0, 224.0, 0.0, 0.0, 0.0, 1.6137596206880777E9, 2021-02-19 16:33:40.688
107.0, -10290.1171875, 19986.392578125, -13255.388671875, 135850.390625, -187500.015625, -140964.015625, -187500.015625, -187500.015625, -0.12200000882148743, -0.6420000195503235, 0.7640000581741333, 192.0, 0.0, 0.0, 0.0, 0.0, 0.0, 0.0, 0.0, 0.0, 0.0, 1.6137596206919076E9, 2021-02-19 16:33:40.691
108.0, -10299.3037109375, 19951.009765625, -13295.2197265625, 135798.515625, -187500.015625, -139696.75, -187500.015625, -187500.015625, -0.12200000882148743, -0.6420000195503235, 0.7640000581741333, 192.0, 0.0, 0.0, 0.0, 0.0, 0.0, 0.0, 0.0, 0.0, 0.0, 1.6137596206949909E9, 2021-02-19 16:33:40.694
109.0, -10680.6015625, 20218.44921875, -13036.7890625, 136051.796875, -187500.015625, -141280.71875, -187500.015625, -187500.015625, -0.12200000882148743, -0.6420000195503235, 0.7640000581741333, 192.0, 0.0, 0.0, 0.0, 0.0, 0.0, 0.0, 0.0, 0.0, 0.0, 1.613759620697909E9, 2021-02-19 16:33:40.697
110.0, -10677.6064453125, 20277.61328125, -12977.51171875, 136121.46875, -187500.015625, -142638.921875, -187500.015625, -187500.015625, -0.12200000882148743, -0.6420000195503235, 0.7640000581741333, 192.0, 0.0, 0.0, 0.0, 0.0, 0.0, 0.0, 0.0, 0.0, 0.0, 1.6137596207010071E9, 2021-02-19 16:33:40.701
111.0, -10362.603515625, 20037.9140625, -13211.51171875, 135890.359375, -187500.015625, -141159.84375, -187500.015625, -187500.015625, -0.12200000882148743, -0.6420000195503235, 0.7640000581741333, 192.0, 0.0, 0.0, 0.0, 0.0, 0.0, 0.0, 0.0, 0.0, 0.0, 1.6137596207049987E9, 2021-02-19 16:33:40.704
112.0, -10270.9833984375, 19912.36328125, -13337.2626953125, 135752.046875, -187500.015625, -139522.6875, -187500.015625, -187500.015625, -0.12200000882148743, -0.6420000195503235, 0.7640000581741333, 192.0, 0.0, 0.0, 0.0, 0.0, 0.0, 0.0, 0.0, 0.0, 0.0, 1.613759620708002E9, 2021-02-19 16:33:40.708
113.0, -10647.96875, 20140.10546875, -13120.9208984375, 135959.578125, -187500.015625, -140726.890625, -187500.015625, -187500.015625, -0.12200000882148743, -0.6420000195503235, 0.7640000581741333, 192.0, 0.0, 0.0, 0.0, 0.0, 0.0, 0.0, 0.0, 0.0, 0.0, 1.6137596207109945E9, 2021-02-19 16:33:40.710
114.0, -10742.7841796875, 20359.599609375, -12904.2431640625, 136185.734375, -187500.015625, -142610.0, -187500.015625, -187500.015625, -0.12200000882148743, -0.6420000195503235, 0.7640000581741333, 192.0, 0.0, 0.0, 0.0, 0.0, 0.0, 0.0, 0.0, 0.0, 0.0, 1.6137596207139838E9, 2021-02-19 16:33:40.713
115.0, -10407.1279296875, 20142.1171875, -13114.2373046875, 135980.9375, -187500.015625, -141742.375, -187500.015625, -187500.015625, -0.12200000882148743, -0.6420000195503235, 0.7640000581741333, 192.0, 0.0, 0.0, 0.0, 0.0, 0.0, 0.0, 0.0, 0.0, 0.0, 1.6137596207169347E9, 2021-02-19 16:33:40.716
116.0, -10242.3291015625, 19895.30859375, -13358.0498046875, 135726.203125, -187500.015625, -139720.390625, -187500.015625, -187500.015625, -0.12000000476837158, -0.6460000276565552, 0.7580000162124634, 192.0, 252.0, 64.0, 235.0, 208.0, 23.0, 176.0, 0.0, 0.0, 0.0, 1.6137596207211585E9, 2021-02-19 16:33:40.721
117.0, -10590.0107421875, 20109.416015625, -13151.2294921875, 135920.109375, -187500.015625, -140407.734375, -187500.015625, -187500.015625, -0.12000000476837158, -0.6460000276565552, 0.7580000162124634, 192.0, 0.0, 0.0, 0.0, 0.0, 0.0, 0.0, 0.0, 0.0, 0.0, 1.6137596207239995E9, 2021-02-19 16:33:40.723
118.0, -10771.5068359375, 20321.333984375, -12940.6982421875, 136135.734375, -187500.015625, -142435.234375, -187500.015625, -187500.015625, -0.12000000476837158, -0.6460000276565552, 0.7580000162124634, 192.0, 0.0, 0.0, 0.0, 0.0, 0.0, 0.0, 0.0, 0.0, 0.0, 1.6137596207281318E9, 2021-02-19 16:33:40.728
119.0, -10496.9375, 20133.154296875, -13121.7919921875, 135959.6875, -187500.015625, -141973.765625, -187500.015625, -187500.015625, -0.12000000476837158, -0.6460000276565552, 0.7580000162124634, 192.0, 0.0, 0.0, 0.0, 0.0, 0.0, 0.0, 0.0, 0.0, 0.0, 1.6137596207310352E9, 2021-02-19 16:33:40.731
120.0, -10257.5947265625, 19924.27734375, -13325.908203125, 135747.6875, -187500.015625, -139840.484375, -187500.015625, -187500.015625, -0.12000000476837158, -0.6460000276565552, 0.7580000162124634, 192.0, 0.0, 0.0, 0.0, 0.0, 0.0, 0.0, 0.0, 0.0, 0.0, 1.6137596207339556E9, 2021-02-19 16:33:40.733
121.0, -10518.1494140625, 20053.380859375, -13200.42578125, 135858.140625, -187500.015625, -139904.375, -187500.015625, -187500.015625, -0.12000000476837158, -0.6460000276565552, 0.7580000162124634, 192.0, 0.0, 0.0, 0.0, 0.0, 0.0, 0.0, 0.0, 0.0, 0.0, 1.6137596207369545E9, 2021-02-19 16:33:40.736
122.0, -10791.734375, 20321.6015625, -12934.3056640625, 136123.53125, -187500.015625, -142053.28125, -187500.015625, -187500.015625, -0.12000000476837158, -0.6460000276565552, 0.7580000162124634, 192.0, 0.0, 0.0, 0.0, 0.0, 0.0, 0.0, 0.0, 0.0, 0.0, 1.613759620741036E9, 2021-02-19 16:33:40.741
123.0, -10558.248046875, 20208.970703125, -13034.576171875, 136028.46875, -187500.015625, -142156.78125, -187500.015625, -187500.015625, -0.12000000476837158, -0.6460000276565552, 0.7580000162124634, 192.0, 0.0, 0.0, 0.0, 0.0, 0.0, 0.0, 0.0, 0.0, 0.0, 1.6137596207440448E9, 2021-02-19 16:33:40.744
124.0, -10278.9853515625, 19898.70703125, -13333.642578125, 135721.0, -187500.015625, -140105.453125, -187500.015625, -187500.015625, -0.12000000476837158, -0.6460000276565552, 0.7580000162124634, 192.0, 0.0, 0.0, 0.0, 0.0, 0.0, 0.0, 0.0, 0.0, 0.0, 1.61375962079508E9, 2021-02-19 16:33:40.795
125.0, -10470.5625, 20012.298828125, -13225.7724609375, 135814.8125, -187500.015625, -139847.078125, -187500.015625, -187500.015625, -0.12000000476837158, -0.6460000276565552, 0.7580000162124634, 192.0, 0.0, 0.0, 0.0, 0.0, 0.0, 0.0, 0.0, 0.0, 0.0, 1.613759620798216E9, 2021-02-19 16:33:40.798
126.0, -10785.990234375, 20312.884765625, -12927.623046875, 136113.875, -187500.015625, -141955.546875, -187500.015625, -187500.015625, -0.11800000816583633, -0.6460000276565552, 0.7600000500679016, 192.0, 252.0, 80.0, 235.0, 208.0, 23.0, 192.0, 0.0, 0.0, 0.0, 1.6137596208020282E9, 2021-02-19 16:33:40.802
127.0, -10620.3642578125, 20260.984375, -12969.95703125, 136076.71875, -187500.015625, -142552.53125, -187500.015625, -187500.015625, -0.11800000816583633, -0.6460000276565552, 0.7600000500679016, 192.0, 0.0, 0.0, 0.0, 0.0, 0.0, 0.0, 0.0, 0.0, 0.0, 1.6137596208050852E9, 2021-02-19 16:33:40.805
128.0, -10294.69921875, 19974.3671875, -13245.4423828125, 135796.875, -187500.015625, -140620.765625, -187500.015625, -187500.015625, -0.11800000816583633, -0.6460000276565552, 0.7600000500679016, 192.0, 0.0, 0.0, 0.0, 0.0, 0.0, 0.0, 0.0, 0.0, 0.0, 1.6137596208110461E9, 2021-02-19 16:33:40.811
129.0, -10375.2548828125, 19964.890625, -13255.232421875, 135768.484375, -187500.015625, -139697.328125, -187500.015625, -187500.015625, -0.11800000816583633, -0.6460000276565552, 0.7600000500679016, 192.0, 0.0, 0.0, 0.0, 0.0, 0.0, 0.0, 0.0, 0.0, 0.0, 1.6137596208154073E9, 2021-02-19 16:33:40.815
130.0, -10749.8701171875, 20250.724609375, -12973.287109375, 136045.65625, -187500.015625, -141553.5625, -187500.015625, -187500.015625, -0.11800000816583633, -0.6460000276565552, 0.7600000500679016, 192.0, 0.0, 0.0, 0.0, 0.0, 0.0, 0.0, 0.0, 0.0, 0.0, 1.6137596208190415E9, 2021-02-19 16:33:40.819
131.0, -10675.4384765625, 20264.671875, -12955.9423828125, 136072.59375, -187500.015625, -142627.140625, -187500.015625, -187500.015625, -0.11800000816583633, -0.6460000276565552, 0.7600000500679016, 192.0, 0.0, 0.0, 0.0, 0.0, 0.0, 0.0, 0.0, 0.0, 0.0, 1.613759620869106E9, 2021-02-19 16:33:40.869
132.0, -10348.455078125, 20014.66796875, -13198.6376953125, 135829.3125, -187500.015625, -140887.109375, -187500.015625, -187500.015625, -0.11800000816583633, -0.6460000276565552, 0.7600000500679016, 192.0, 0.0, 0.0, 0.0, 0.0, 0.0, 0.0, 0.0, 0.0, 0.0, 1.6137596209382172E9, 2021-02-19 16:33:40.938
133.0, -10329.27734375, 19908.876953125, -13307.6474609375, 135709.46875, -187500.015625, -139502.109375, -187500.015625, -187500.015625, -0.11800000816583633, -0.6460000276565552, 0.7600000500679016, 192.0, 0.0, 0.0, 0.0, 0.0, 0.0, 0.0, 0.0, 0.0, 0.0, 1.6137596211286445E9, 2021-02-19 16:33:41.128
134.0, -10713.548828125, 20247.349609375, -12980.3056640625, 136031.015625, -187500.015625, -141081.203125, -187500.015625, -187500.015625, -0.11800000816583633, -0.6460000276565552, 0.7600000500679016, 192.0, 0.0, 0.0, 0.0, 0.0, 0.0, 0.0, 0.0, 0.0, 0.0, 1.6137596211323843E9, 2021-02-19 16:33:41.132
135.0, -10709.8828125, 20374.12890625, -12854.845703125, 136168.796875, -187500.015625, -142698.203125, -187500.015625, -187500.015625, -0.11800000816583633, -0.6460000276565552, 0.7600000500679016, 192.0, 0.0, 0.0, 0.0, 0.0, 0.0, 0.0, 0.0, 0.0, 0.0, 1.6137596211365347E9, 2021-02-19 16:33:41.136
226.0, -10742.158203125, 20376.36328125, -12897.7607421875, 135998.6875, -187500.015625, -144771.78125, -187500.015625, -187500.015625, -0.11800000816583633, -0.6460000276565552, 0.7600000500679016, 192.0, 0.0, 0.0, 0.0, 0.0, 0.0, 0.0, 0.0, 0.0, 0.0, 1.6137596211404345E9, 2021-02-19 16:33:41.140
227.0, -10678.7470703125, 20439.306640625, -12831.4208984375, 136074.796875, -187500.015625, -146151.390625, -187500.015625, -187500.015625, -0.11800000816583633, -0.6460000276565552, 0.7600000500679016, 192.0, 0.0, 0.0, 0.0, 0.0, 0.0, 0.0, 0.0, 0.0, 0.0, 1.6137596211494238E9, 2021-02-19 16:33:41.149
228.0, -10379.009765625, 20153.962890625, -13109.923828125, 135796.25, -187500.015625, -144664.546875, -187500.015625, -187500.015625, -0.11800000816583633, -0.6460000276565552, 0.7600000500679016, 192.0, 0.0, 0.0, 0.0, 0.0, 0.0, 0.0, 0.0, 0.0, 0.0, 1.6137596211704504E9, 2021-02-19 16:33:41.170
229.0, -10365.1513671875, 20084.96484375, -13181.091796875, 135713.15625, -187500.015625, -143468.109375, -187500.015625, -187500.015625, -0.11800000816583633, -0.6460000276565552, 0.7600000500679016, 192.0, 0.0, 0.0, 0.0, 0.0, 0.0, 0.0, 0.0, 0.0, 0.0, 1.6137596212056696E9, 2021-02-19 16:33:41.205
230.0, -10742.0693359375, 20386.064453125, -12890.18359375, 135999.390625, -187500.015625, -145222.203125, -187500.015625, -187500.015625, -0.11800000816583633, -0.6460000276565552, 0.7600000500679016, 192.0, 0.0, 0.0, 0.0, 0.0, 0.0, 0.0, 0.0, 0.0, 0.0, 1.6137596212265365E9, 2021-02-19 16:33:41.226
231.0, -10762.54296875, 20535.57421875, -12739.755859375, 136159.015625, -187500.015625, -147233.9375, -187500.015625, -187500.015625, -0.11800000816583633, -0.6460000276565552, 0.7600000500679016, 192.0, 0.0, 0.0, 0.0, 0.0, 0.0, 0.0, 0.0, 0.0, 0.0, 1.6137596212307427E9, 2021-02-19 16:33:41.230
232.0, -10439.203125, 20285.8828125, -12984.10546875, 135921.25, -187500.015625, -146403.875, -187500.015625, -187500.015625, -0.11800000816583633, -0.6460000276565552, 0.7600000500679016, 192.0, 0.0, 0.0, 0.0, 0.0, 0.0, 0.0, 0.0, 0.0, 0.0, 1.6137596212845821E9, 2021-02-19 16:33:41.284
233.0, -10350.01953125, 20082.572265625, -13189.451171875, 135705.90625, -187500.015625, -144836.8125, -187500.015625, -187500.015625, -0.11800000816583633, -0.6460000276565552, 0.7600000500679016, 192.0, 0.0, 0.0, 0.0, 0.0, 0.0, 0.0, 0.0, 0.0, 0.0, 1.613759621572019E9, 2021-02-19 16:33:41.572
234.0, -10719.6953125, 20331.83984375, -12951.248046875, 135936.328125, -187500.015625, -146180.265625, -187500.015625, -187500.015625, -0.12400000542402267, -0.6540000438690186, 0.7500000596046448, 192.0, 252.0, 32.0, 235.0, 144.0, 23.0, 112.0, 0.0, 0.0, 0.0, 1.6137596215929475E9, 2021-02-19 16:33:41.592
235.0, -10841.51171875, 20544.1796875, -12741.25390625, 136153.484375, -187500.015625, -148460.96875, -187500.015625, -187500.015625, -0.12400000542402267, -0.6540000438690186, 0.7500000596046448, 192.0, 0.0, 0.0, 0.0, 0.0, 0.0, 0.0, 0.0, 0.0, 0.0, 1.6137596215960984E9, 2021-02-19 16:33:41.596
86.0, -9910.31640625, 19408.890625, -13870.8662109375, 134848.671875, -187500.015625, -122097.15625, -187500.015625, -187500.015625, -0.12600000202655792, -0.6460000276565552, 0.7500000596046448, 192.0, 252.0, 16.0, 235.0, 208.0, 23.0, 112.0, 0.0, 0.0, 0.0, 1.61375962159995E9, 2021-02-19 16:33:41.599
87.0, -10219.9990234375, 19723.982421875, -13563.0830078125, 135156.65625, -187500.015625, -122875.5625, -187500.015625, -187500.015625, -0.12600000202655792, -0.6460000276565552, 0.7500000596046448, 192.0, 0.0, 0.0, 0.0, 0.0, 0.0, 0.0, 0.0, 0.0, 0.0, 1.6137596216029735E9, 2021-02-19 16:33:41.602
88.0, -10090.4267578125, 19721.189453125, -13564.580078125, 135169.046875, -187500.015625, -122600.8125, -187500.015625, -187500.015625, -0.12600000202655792, -0.6460000276565552, 0.7500000596046448, 192.0, 0.0, 0.0, 0.0, 0.0, 0.0, 0.0, 0.0, 0.0, 0.0, 1.61375962160702E9, 2021-02-19 16:33:41.607
89.0, -9814.337890625, 19443.201171875, -13840.6689453125, 134897.0, -187500.015625, -119580.2890625, -187500.015625, -187500.015625, -0.12600000202655792, -0.6460000276565552, 0.7500000596046448, 192.0, 0.0, 0.0, 0.0, 0.0, 0.0, 0.0, 0.0, 0.0, 0.0, 1.613759621610999E9, 2021-02-19 16:33:41.610
90.0, -9853.5654296875, 19408.0859375, -13881.0361328125, 134846.375, -187500.015625, -117289.7890625, -187500.015625, -187500.015625, -0.12600000202655792, -0.6460000276565552, 0.7500000596046448, 192.0, 0.0, 0.0, 0.0, 0.0, 0.0, 0.0, 0.0, 0.0, 0.0, 1.6137596216161158E9, 2021-02-19 16:33:41.616
91.0, -10202.2080078125, 19713.857421875, -13584.697265625, 135140.625, -187500.015625, -117962.84375, -187500.015625, -187500.015625, -0.12600000202655792, -0.6460000276565552, 0.7500000596046448, 192.0, 0.0, 0.0, 0.0, 0.0, 0.0, 0.0, 0.0, 0.0, 0.0, 1.6137596216189497E9, 2021-02-19 16:33:41.618
92.0, -10168.2109375, 19820.275390625, -13475.6650390625, 135260.421875, -187500.015625, -118457.1328125, -187500.015625, -187500.015625, -0.12600000202655792, -0.6460000276565552, 0.7500000596046448, 192.0, 0.0, 0.0, 0.0, 0.0, 0.0, 0.0, 0.0, 0.0, 0.0, 1.6137596216620848E9, 2021-02-19 16:33:41.662
93.0, -9871.423828125, 19583.435546875, -13704.099609375, 135032.9375, -187500.015625, -116119.609375, -187500.015625, -187500.015625, -0.12600000202655792, -0.6460000276565552, 0.7500000596046448, 192.0, 0.0, 0.0, 0.0, 0.0, 0.0, 0.0, 0.0, 0.0, 0.0, 1.6137596216652095E9, 2021-02-19 16:33:41.665
94.0, -9826.8994140625, 19475.208984375, -13811.9248046875, 134914.546875, -187500.015625, -113505.7734375, -187500.015625, -187500.015625, -0.12600000202655792, -0.6460000276565552, 0.7500000596046448, 192.0, 0.0, 0.0, 0.0, 0.0, 0.0, 0.0, 0.0, 0.0, 0.0, 1.6137596217231383E9, 2021-02-19 16:33:41.723
95.0, -10164.947265625, 19806.6171875, -13489.2998046875, 135230.0625, -187500.015625, -113891.296875, -187500.015625, -187500.015625, -0.12600000202655792, -0.6460000276565552, 0.7500000596046448, 192.0, 0.0, 0.0, 0.0, 0.0, 0.0, 0.0, 0.0, 0.0, 0.0, 1.6137596217271447E9, 2021-02-19 16:33:41.727
96.0, -10184.9072265625, 19970.701171875, -13324.455078125, 135404.6875, -187500.015625, -114771.3125, -187500.015625, -187500.015625, -0.12200000882148743, -0.6500000357627869, 0.7600000500679016, 192.0, 252.0, 48.0, 235.0, 176.0, 23.0, 192.0, 0.0, 0.0, 0.0, 1.613759621730285E9, 2021-02-19 16:33:41.730
97.0, -9879.515625, 19709.208984375, -13579.6005859375, 135155.9375, -187500.015625, -112756.9921875, -187500.015625, -187500.015625, -0.12200000882148743, -0.6500000357627869, 0.7600000500679016, 192.0, 0.0, 0.0, 0.0, 0.0, 0.0, 0.0, 0.0, 0.0, 0.0, 1.6137596217441127E9, 2021-02-19 16:33:41.744
98.0, -9750.92578125, 19491.861328125, -13794.982421875, 134931.75, -187500.015625, -109818.8515625, -187500.015625, -187500.015625, -0.12200000882148743, -0.6500000357627869, 0.7600000500679016, 192.0, 0.0, 0.0, 0.0, 0.0, 0.0, 0.0, 0.0, 0.0, 0.0, 1.613759621750258E9, 2021-02-19 16:33:41.750
99.0, -10065.794921875, 19710.28125, -13584.09375, 135131.421875, -187500.015625, -109608.640625, -187500.015625, -187500.015625, -0.12200000882148743, -0.6500000357627869, 0.7600000500679016, 192.0, 0.0, 0.0, 0.0, 0.0, 0.0, 0.0, 0.0, 0.0, 0.0, 1.613759622115639E9, 2021-02-19 16:33:42.115
100.0, -10209.5166015625, 19922.01953125, -13371.751953125, 135349.59375, -187500.015625, -110649.8046875, -187500.015625, -187500.015625, -0.12200000882148743, -0.6500000357627869, 0.7600000500679016, 192.0, 0.0, 0.0, 0.0, 0.0, 0.0, 0.0, 0.0, 0.0, 0.0, 1.613759622179659E9, 2021-02-19 16:33:42.179
101.0, -9950.8173828125, 19722.865234375, -13563.2392578125, 135166.34375, -187500.015625, -109197.765625, -187500.015625, -187500.015625, -0.12200000882148743, -0.6500000357627869, 0.7600000500679016, 192.0, 0.0, 0.0, 0.0, 0.0, 0.0, 0.0, 0.0, 0.0, 0.0, 1.6137596223207855E9, 2021-02-19 16:33:42.320
214.0, -10309.853515625, 19884.580078125, -13411.626953125, 135150.125, -187500.015625, -18561.46875, -187500.015625, -187500.015625, -0.12000000476837158, -0.656000018119812, 0.7600000500679016, 192.0, 252.0, 64.0, 235.0, 128.0, 23.0, 192.0, 0.0, 0.0, 0.0, 1.6137596223459048E9, 2021-02-19 16:33:42.345
215.0, -10147.6025390625, 19690.208984375, -13605.5732421875, 134946.03125, -187500.015625, -16650.193359375, -187500.015625, -187500.015625, -0.12000000476837158, -0.656000018119812, 0.7600000500679016, 192.0, 0.0, 0.0, 0.0, 0.0, 0.0, 0.0, 0.0, 0.0, 0.0, 1.6137596224048715E9, 2021-02-19 16:33:42.404
216.0, -10458.7158203125, 19974.970703125, -13329.88671875, 135213.875, -187500.015625, -17658.302734375, -187500.015625, -187500.015625, -0.12000000476837158, -0.656000018119812, 0.7600000500679016, 192.0, 0.0, 0.0, 0.0, 0.0, 0.0, 0.0, 0.0, 0.0, 0.0, 1.61375962241087E9, 2021-02-19 16:33:42.410
217.0, -10512.830078125, 20185.724609375, -13117.322265625, 135434.9375, -187500.015625, -19519.263671875, -187500.015625, -187500.015625, -0.12000000476837158, -0.656000018119812, 0.7600000500679016, 192.0, 0.0, 0.0, 0.0, 0.0, 0.0, 0.0, 0.0, 0.0, 0.0, 1.61375962241405E9, 2021-02-19 16:33:42.414
4.0, -7785.693359375, 19947.61328125, -13344.1025390625, 135158.15625, -187500.015625, -23363.47265625, -187500.015625, -187500.015625, -0.12000000476837158, -0.656000018119812, 0.7600000500679016, 192.0, 0.0, 0.0, 0.0, 0.0, 0.0, 0.0, 0.0, 0.0, 0.0, 1.6137596224168975E9, 2021-02-19 16:33:42.416
2.0, -7829.41357421875, 20021.439453125, -13273.3818359375, 135214.75, -187500.015625, -23275.80859375, -187500.015625, -187500.015625, -0.12000000476837158, -0.656000018119812, 0.7600000500679016, 192.0, 0.0, 0.0, 0.0, 0.0, 0.0, 0.0, 0.0, 0.0, 0.0, 1.6137596224208965E9, 2021-02-19 16:33:42.420
220.0, -10208.9130859375, 19972.244140625, -13326.19921875, 135206.921875, -187500.015625, -17684.498046875, -187500.015625, -187500.015625, -0.12000000476837158, -0.656000018119812, 0.7600000500679016, 192.0, 0.0, 0.0, 0.0, 0.0, 0.0, 0.0, 0.0, 0.0, 0.0, 1.6137596224239297E9, 2021-02-19 16:33:42.423
221.0, -10353.529296875, 20269.27734375, -13031.9384765625, 135506.859375, -187500.015625, -20086.998046875, -187500.015625, -187500.015625, -0.12000000476837158, -0.656000018119812, 0.7600000500679016, 192.0, 0.0, 0.0, 0.0, 0.0, 0.0, 0.0, 0.0, 0.0, 0.0, 1.6137596224270253E9, 2021-02-19 16:33:42.427
0.0, -7423.505859375, 19760.349609375, -13522.134765625, 134983.03125, -187500.015625, -23295.30078125, -187500.015625, -187500.015625, -0.12000000476837158, -0.656000018119812, 0.7600000500679016, 192.0, 0.0, 0.0, 0.0, 0.0, 0.0, 0.0, 0.0, 0.0, 0.0, 1.613759622430889E9, 2021-02-19 16:33:42.430
20.0, -8262.791015625, 20240.041015625, -13056.123046875, 135421.078125, -187500.015625, -29972.771484375, -187500.015625, -187500.015625, -0.12000000476837158, -0.656000018119812, 0.7600000500679016, 192.0, 0.0, 0.0, 0.0, 0.0, 0.0, 0.0, 0.0, 0.0, 0.0, 1.6137596224359105E9, 2021-02-19 16:33:42.435
224.0, -9885.70703125, 20007.89453125, -13285.83203125, 135240.984375, -187500.015625, -18293.60546875, -187500.015625, -187500.015625, -0.12600000202655792, -0.6500000357627869, 0.7560000419616699, 192.0, 252.0, 16.0, 235.0, 176.0, 23.0, 160.0, 0.0, 0.0, 0.0, 1.6137596224389987E9, 2021-02-19 16:33:42.438
42.0, -9130.8662109375, 20139.7265625, -13166.16015625, 135295.0625, -187500.015625, -44957.625, -187500.015625, -187500.015625, -0.12600000202655792, -0.6500000357627869, 0.7560000419616699, 192.0, 0.0, 0.0, 0.0, 0.0, 0.0, 0.0, 0.0, 0.0, 0.0, 1.613759622442936E9, 2021-02-19 16:33:42.442
254.0, -7985.27197265625, 20051.279296875, -13242.4912109375, 135252.125, -187500.015625, -24718.748046875, -187500.015625, -187500.015625, -0.11800000816583633, -0.6480000019073486, 0.7540000081062317, 192.0, 252.0, 80.0, 235.0, 192.0, 23.0, 144.0, 0.0, 0.0, 0.0, 1.6137596224469764E9, 2021-02-19 16:33:42.446
40.0, -9880.275390625, 20645.634765625, -12673.3046875, 135781.90625, -187500.015625, -46241.53125, -187500.015625, -187500.015625, -0.11800000816583633, -0.6480000019073486, 0.7540000081062317, 192.0, 0.0, 0.0, 0.0, 0.0, 0.0, 0.0, 0.0, 0.0, 0.0, 1.613759622450909E9, 2021-02-19 16:33:42.450
16.0, -8136.07958984375, 20177.90234375, -13123.8037109375, 135367.8125, -187500.015625, -28893.853515625, -187500.015625, -187500.015625, -0.11800000816583633, -0.6480000019073486, 0.7540000081062317, 192.0, 0.0, 0.0, 0.0, 0.0, 0.0, 0.0, 0.0, 0.0, 0.0, 1.6137596224539413E9, 2021-02-19 16:33:42.453
229.0, -9894.71484375, 20259.083984375, -13043.0244140625, 135482.796875, -187500.015625, -21086.76953125, -187500.015625, -187500.015625, -0.11800000816583633, -0.6480000019073486, 0.7540000081062317, 192.0, 0.0, 0.0, 0.0, 0.0, 0.0, 0.0, 0.0, 0.0, 0.0, 1.6137596225211055E9, 2021-02-19 16:33:42.521
38.0, -9526.3359375, 20296.701171875, -13009.720703125, 135450.40625, -187500.015625, -42418.04296875, -187500.015625, -187500.015625, -0.11800000816583633, -0.6480000019073486, 0.7540000081062317, 192.0, 0.0, 0.0, 0.0, 0.0, 0.0, 0.0, 0.0, 0.0, 0.0, 1.6137596225250173E9, 2021-02-19 16:33:42.525
36.0, -10035.083984375, 20725.38671875, -12589.6640625, 135868.046875, -187500.015625, -42582.57421875, -187500.015625, -187500.015625, -0.11800000816583633, -0.6480000019073486, 0.7540000081062317, 192.0, 0.0, 0.0, 0.0, 0.0, 0.0, 0.0, 0.0, 0.0, 0.0, 1.613759622528108E9, 2021-02-19 16:33:42.528
12.0, -8092.158203125, 20204.27734375, -13095.126953125, 135403.625, -187500.015625, -28022.314453125, -187500.015625, -187500.015625, -0.11800000816583633, -0.6480000019073486, 0.7540000081062317, 192.0, 0.0, 0.0, 0.0, 0.0, 0.0, 0.0, 0.0, 0.0, 0.0, 1.6137596225730846E9, 2021-02-19 16:33:42.573
233.0, -9763.95703125, 20261.275390625, -13042.8232421875, 135476.78125, -187500.015625, -22021.564453125, -187500.015625, -187500.015625, -0.11800000816583633, -0.6480000019073486, 0.7540000081062317, 192.0, 0.0, 0.0, 0.0, 0.0, 0.0, 0.0, 0.0, 0.0, 0.0, 1.6137596225942168E9, 2021-02-19 16:33:42.594
34.0, -9279.7509765625, 20291.314453125, -13008.513671875, 135451.484375, -187500.015625, -37422.2265625, -187500.015625, -187500.015625, -0.11800000816583633, -0.6480000019073486, 0.7540000081062317, 192.0, 0.0, 0.0, 0.0, 0.0, 0.0, 0.0, 0.0, 0.0, 0.0, 1.6137596225980945E9, 2021-02-19 16:33:42.598
27.0, -8959.115234375, 20393.8203125, -12913.630859375, 135542.34375, -187500.015625, -31756.240234375, -187500.015625, -187500.015625, -0.11800000816583633, -0.6520000100135803, 0.7640000581741333, 192.0, 252.0, 80.0, 235.0, 160.0, 23.0, 224.0, 0.0, 0.0, 0.0, 1.6137596226010764E9, 2021-02-19 16:33:42.601
236.0, -9256.7734375, 19891.5546875, -13399.333984375, 135120.5, -187500.015625, -21198.818359375, -187500.015625, -187500.015625, -0.11800000816583633, -0.6520000100135803, 0.7640000581741333, 192.0, 0.0, 0.0, 0.0, 0.0, 0.0, 0.0, 0.0, 0.0, 0.0, 1.613759622604238E9, 2021-02-19 16:33:42.604
32.0, -9601.34765625, 20686.404296875, -12623.6611328125, 135834.609375, -187500.015625, -37977.71484375, -187500.015625, -187500.015625, -0.11800000816583633, -0.6520000100135803, 0.7640000581741333, 192.0, 0.0, 0.0, 0.0, 0.0, 0.0, 0.0, 0.0, 0.0, 0.0, 1.6137596226251612E9, 2021-02-19 16:33:42.625
25.0, -8394.1298828125, 20104.701171875, -13190.3896484375, 135286.90625, -187500.015625, -30237.259765625, -187500.015625, -187500.015625, -0.11800000816583633, -0.6520000100135803, 0.7640000581741333, 192.0, 0.0, 0.0, 0.0, 0.0, 0.0, 0.0, 0.0, 0.0, 0.0, 1.6137596226501088E9, 2021-02-19 16:33:42.650
71.0, -9440.7509765625, 19999.736328125, -13308.8984375, 135122.296875, -187500.015625, -44835.609375, -187500.015625, -187500.015625, -0.11800000816583633, -0.6520000100135803, 0.7640000581741333, 192.0, 0.0, 0.0, 0.0, 0.0, 0.0, 0.0, 0.0, 0.0, 0.0, 1.6137596226912386E9, 2021-02-19 16:33:42.691
6.0, -8390.77734375, 20182.529296875, -13119.958984375, 135362.296875, -187500.015625, -24043.009765625, -187500.015625, -187500.015625, -0.11800000816583633, -0.6520000100135803, 0.7640000581741333, 192.0, 0.0, 0.0, 0.0, 0.0, 0.0, 0.0, 0.0, 0.0, 0.0, 1.6137596226942177E9, 2021-02-19 16:33:42.694
21.0, -8047.96875, 19974.43359375, -13316.654296875, 135159.625, -187500.015625, -28294.087890625, -187500.015625, -187500.015625, -0.11800000816583633, -0.6520000100135803, 0.7640000581741333, 192.0, 0.0, 0.0, 0.0, 0.0, 0.0, 0.0, 0.0, 0.0, 0.0, 1.61375962269726E9, 2021-02-19 16:33:42.697
69.0, -9876.654296875, 20281.390625, -13040.07421875, 135384.578125, -187500.015625, -45507.32421875, -187500.015625, -187500.015625, -0.11800000816583633, -0.6520000100135803, 0.7640000581741333, 192.0, 0.0, 0.0, 0.0, 0.0, 0.0, 0.0, 0.0, 0.0, 0.0, 1.6137596227012296E9, 2021-02-19 16:33:42.701
43.0, -9174.3623046875, 20112.501953125, -13197.1171875, 135251.15625, -187500.015625, -44451.8515625, -187500.015625, -187500.015625, -0.11800000816583633, -0.6520000100135803, 0.7640000581741333, 192.0, 0.0, 0.0, 0.0, 0.0, 0.0, 0.0, 0.0, 0.0, 0.0, 1.613759622704203E9, 2021-02-19 16:33:42.704
67.0, -9339.1171875, 19903.466796875, -13406.1962890625, 135027.53125, -187500.015625, -44090.46875, -187500.015625, -187500.015625, -0.11600000411272049, -0.6520000100135803, 0.7500000596046448, 192.0, 252.0, 96.0, 235.0, 160.0, 23.0, 112.0, 0.0, 0.0, 0.0, 1.6137596227072945E9, 2021-02-19 16:33:42.707
45.0, -9314.865234375, 20290.755859375, -13018.9521484375, 135437.171875, -187500.015625, -46924.71484375, -187500.015625, -187500.015625, -0.11600000411272049, -0.6520000100135803, 0.7500000596046448, 192.0, 0.0, 0.0, 0.0, 0.0, 0.0, 0.0, 0.0, 0.0, 0.0, 1.6137596227112143E9, 2021-02-19 16:33:42.711
46.0, -9014.7265625, 19972.736328125, -13331.048828125, 135125.953125, -187500.015625, -44928.43359375, -187500.015625, -187500.015625, -0.11600000411272049, -0.6520000100135803, 0.7500000596046448, 192.0, 0.0, 0.0, 0.0, 0.0, 0.0, 0.0, 0.0, 0.0, 0.0, 1.6137596227142887E9, 2021-02-19 16:33:42.714
65.0, -9832.666015625, 20285.615234375, -13039.3818359375, 135387.625, -187500.015625, -45950.7578125, -187500.015625, -187500.015625, -0.11600000411272049, -0.6520000100135803, 0.7500000596046448, 192.0, 0.0, 0.0, 0.0, 0.0, 0.0, 0.0, 0.0, 0.0, 0.0, 1.6137596227172313E9, 2021-02-19 16:33:42.717
84.0, -9602.353515625, 19972.982421875, -13329.88671875, 135084.0625, -187500.015625, -46683.94140625, -187500.015625, -187500.015625, -0.11600000411272049, -0.6520000100135803, 0.7500000596046448, 192.0, 0.0, 0.0, 0.0, 0.0, 0.0, 0.0, 0.0, 0.0, 0.0, 1.6137596227214136E9, 2021-02-19 16:33:42.721
49.0, -9509.28125, 20328.865234375, -12985.021484375, 135467.734375, -187500.015625, -47119.44140625, -187500.015625, -187500.015625, -0.11600000411272049, -0.6520000100135803, 0.7500000596046448, 192.0, 0.0, 0.0, 0.0, 0.0, 0.0, 0.0, 0.0, 0.0, 0.0, 1.613759622737266E9, 2021-02-19 16:33:42.737
62.0, -9484.6494140625, 20175.51171875, -13143.49609375, 135303.90625, -187500.015625, -46134.578125, -187500.015625, -187500.015625, -0.11600000411272049, -0.6520000100135803, 0.7500000596046448, 192.0, 0.0, 0.0, 0.0, 0.0, 0.0, 0.0, 0.0, 0.0, 0.0, 1.613759622742293E9, 2021-02-19 16:33:42.742
82.0, -10131.419921875, 20435.505859375, -12880.6171875, 135535.046875, -187500.015625, -48850.2734375, -187500.015625, -187500.015625, -0.11600000411272049, -0.6520000100135803, 0.7500000596046448, 192.0, 0.0, 0.0, 0.0, 0.0, 0.0, 0.0, 0.0, 0.0, 0.0, 1.6137596227462723E9, 2021-02-19 16:33:42.746
60.0, -9514.6005859375, 20067.998046875, -13250.716796875, 135179.453125, -187500.015625, -44316.04296875, -187500.015625, -187500.015625, -0.11600000411272049, -0.6520000100135803, 0.7500000596046448, 192.0, 0.0, 0.0, 0.0, 0.0, 0.0, 0.0, 0.0, 0.0, 0.0, 1.6137596227623236E9, 2021-02-19 16:33:42.762
80.0, -9589.8818359375, 19941.80078125, -13365.1357421875, 135054.484375, -187500.015625, -45225.55859375, -187500.015625, -187500.015625, -0.11600000411272049, -0.6520000100135803, 0.7500000596046448, 192.0, 0.0, 0.0, 0.0, 0.0, 0.0, 0.0, 0.0, 0.0, 0.0, 1.613759622797468E9, 2021-02-19 16:33:42.797
58.0, -9365.9169921875, 20073.900390625, -13236.6806640625, 135210.21875, -187500.015625, -45861.77734375, -187500.015625, -187500.015625, -0.11600000411272049, -0.6520000100135803, 0.7500000596046448, 192.0, 0.0, 0.0, 0.0, 0.0, 0.0, 0.0, 0.0, 0.0, 0.0, 1.6137596228003078E9, 2021-02-19 16:33:42.800
55.0, -9108.8271484375, 19883.552734375, -13423.048828125, 135015.125, -187500.015625, -43980.609375, -187500.015625, -187500.015625, -0.11600000411272049, -0.6520000100135803, 0.7500000596046448, 192.0, 0.0, 0.0, 0.0, 0.0, 0.0, 0.0, 0.0, 0.0, 0.0, 1.6137596228055074E9, 2021-02-19 16:33:42.805
104.0, -9075.2099609375, 19757.623046875, -13542.921875, 134860.65625, -187500.015625, -45596.41796875, -187500.015625, -187500.015625, -0.11600000411272049, -0.6520000100135803, 0.7500000596046448, 192.0, 0.0, 0.0, 0.0, 0.0, 0.0, 0.0, 0.0, 0.0, 0.0, 1.6137596228093417E9, 2021-02-19 16:33:42.809
76.0, -9540.88671875, 19938.001953125, -13374.12109375, 135048.1875, -187500.015625, -44317.11328125, -187500.015625, -187500.015625, -0.11600000411272049, -0.6520000100135803, 0.7500000596046448, 192.0, 0.0, 0.0, 0.0, 0.0, 0.0, 0.0, 0.0, 0.0, 0.0, 1.6137596228133638E9, 2021-02-19 16:33:42.813
89.0, -9817.1767578125, 20054.85546875, -13248.3251953125, 135146.671875, -187500.015625, -47626.55859375, -187500.015625, -187500.015625, -0.11600000411272049, -0.6520000100135803, 0.7500000596046448, 192.0, 0.0, 0.0, 0.0, 0.0, 0.0, 0.0, 0.0, 0.0, 0.0, 1.6137596228493943E9, 2021-02-19 16:33:42.849
113.0, -9835.4599609375, 20139.45703125, -13168.529296875, 135216.78125, -187500.015625, -45269.3203125, -187500.015625, -187500.015625, -0.11600000411272049, -0.6520000100135803, 0.7500000596046448, 192.0, 0.0, 0.0, 0.0, 0.0, 0.0, 0.0, 0.0, 0.0, 0.0, 1.6137596228524399E9, 2021-02-19 16:33:42.852
111.0, -10251.8056640625, 20372.810546875, -12944.23046875, 135433.4375, -187500.015625, -45510.31640625, -187500.015625, -187500.015625, -0.11600000411272049, -0.6520000100135803, 0.7500000596046448, 192.0, 0.0, 0.0, 0.0, 0.0, 0.0, 0.0, 0.0, 0.0, 0.0, 1.6137596228725407E9, 2021-02-19 16:33:42.872
97.0, -9553.314453125, 19886.837890625, -13418.35546875, 134975.4375, -187500.015625, -48264.703125, -187500.015625, -187500.015625, -0.11600000411272049, -0.6520000100135803, 0.7500000596046448, 192.0, 0.0, 0.0, 0.0, 0.0, 0.0, 0.0, 0.0, 0.0, 0.0, 1.6137596228764544E9, 2021-02-19 16:33:42.876
100.0, -9273.828125, 19877.763671875, -13424.1669921875, 134980.8125, -187500.015625, -48388.0390625, -187500.015625, -187500.015625, -0.11600000411272049, -0.6520000100135803, 0.7500000596046448, 192.0, 0.0, 0.0, 0.0, 0.0, 0.0, 0.0, 0.0, 0.0, 0.0, 1.6137596228794284E9, 2021-02-19 16:33:42.879
109.0, -9449.177734375, 19778.341796875, -13523.498046875, 134859.828125, -187500.015625, -42044.34375, -187500.015625, -187500.015625, -0.11600000411272049, -0.6520000100135803, 0.7500000596046448, 192.0, 0.0, 0.0, 0.0, 0.0, 0.0, 0.0, 0.0, 0.0, 0.0, 1.6137596228824716E9, 2021-02-19 16:33:42.882
93.0, -9686.6650390625, 20021.306640625, -13283.328125, 135109.15625, -187500.015625, -48337.859375, -187500.015625, -187500.015625, -0.11600000411272049, -0.6520000100135803, 0.7500000596046448, 192.0, 0.0, 0.0, 0.0, 0.0, 0.0, 0.0, 0.0, 0.0, 0.0, 1.6137596228864155E9, 2021-02-19 16:33:42.886
107.0, -9629.3544921875, 20119.4296875, -13195.1728515625, 135190.1875, -187500.015625, -44141.96875, -187500.015625, -187500.015625, -0.11600000411272049, -0.6520000100135803, 0.7500000596046448, 192.0, 0.0, 0.0, 0.0, 0.0, 0.0, 0.0, 0.0, 0.0, 0.0, 1.6137596228904037E9, 2021-02-19 16:33:42.890
105.0, -8802.876953125, 19511.462890625, -13787.2041015625, 134606.109375, -187500.015625, -42451.70703125, -187500.015625, -187500.015625, -0.11600000411272049, -0.6520000100135803, 0.7500000596046448, 192.0, 0.0, 0.0, 0.0, 0.0, 0.0, 0.0, 0.0, 0.0, 0.0, 1.6137596229776309E9, 2021-02-19 16:33:42.977
114.0, -10040.9169921875, 20209.083984375, -13105.5869140625, 135267.1875, -187500.015625, -45835.625, -187500.015625, -187500.015625, -0.11600000411272049, -0.6520000100135803, 0.7500000596046448, 192.0, 0.0, 0.0, 0.0, 0.0, 0.0, 0.0, 0.0, 0.0, 0.0, 1.6137596234000804E9, 2021-02-19 16:33:43.400
115.0, -10418.125, 20525.29296875, -12796.6865234375, 135578.5, -187500.015625, -48632.23046875, -187500.015625, -187500.015625, -0.11600000411272049, -0.6520000100135803, 0.7500000596046448, 192.0, 0.0, 0.0, 0.0, 0.0, 0.0, 0.0, 0.0, 0.0, 0.0, 1.6137596234041958E9, 2021-02-19 16:33:43.404
185.0, -10195.0322265625, 20056.017578125, -13271.8837890625, 135040.109375, -187500.015625, -75144.6171875, -187500.015625, -187500.015625, -0.12400000542402267, -0.6500000357627869, 0.7460000514984131, 192.0, 252.0, 32.0, 235.0, 176.0, 23.0, 80.0, 0.0, 0.0, 0.0, 1.6137596234071765E9, 2021-02-19 16:33:43.407
230.0, -9912.5517578125, 20056.64453125, -13272.599609375, 135007.28125, -187500.015625, -85560.171875, -187500.015625, -187500.015625, -0.12400000542402267, -0.6500000357627869, 0.7460000514984131, 192.0, 0.0, 0.0, 0.0, 0.0, 0.0, 0.0, 0.0, 0.0, 0.0, 1.613759623410054E9, 2021-02-19 16:33:43.410
231.0, -10141.857421875, 20209.529296875, -13128.140625, 135138.671875, -187500.015625, -85982.84375, -187500.015625, -187500.015625, -0.12400000542402267, -0.6500000357627869, 0.7460000514984131, 192.0, 0.0, 0.0, 0.0, 0.0, 0.0, 0.0, 0.0, 0.0, 0.0, 1.6137596234141424E9, 2021-02-19 16:33:43.414
232.0, -10474.8544921875, 20493.396484375, -12848.453125, 135421.171875, -187500.015625, -88424.6796875, -187500.015625, -187500.015625, -0.12400000542402267, -0.6500000357627869, 0.7460000514984131, 192.0, 0.0, 0.0, 0.0, 0.0, 0.0, 0.0, 0.0, 0.0, 0.0, 1.6137596234340887E9, 2021-02-19 16:33:43.434
34.0, -10275.56640625, 20102.822265625, -13237.0830078125, 134980.03125, -187500.015625, -96407.359375, -187500.015625, -187500.015625, -0.12400000542402267, -0.6500000357627869, 0.7460000514984131, 192.0, 0.0, 0.0, 0.0, 0.0, 0.0, 0.0, 0.0, 0.0, 0.0, 1.6137596234371336E9, 2021-02-19 16:33:43.437
12.0, -9979.13671875, 20033.599609375, -13285.8544921875, 134947.9375, -187500.015625, -97103.0859375, -187500.015625, -187500.015625, -0.12400000542402267, -0.6500000357627869, 0.7460000514984131, 192.0, 0.0, 0.0, 0.0, 0.0, 0.0, 0.0, 0.0, 0.0, 0.0, 1.61375962345824E9, 2021-02-19 16:33:43.458
235.0, -10067.5830078125, 20135.45703125, -13190.4794921875, 135065.84375, -187500.015625, -87141.7109375, -187500.015625, -187500.015625, -0.12400000542402267, -0.6500000357627869, 0.7460000514984131, 192.0, 0.0, 0.0, 0.0, 0.0, 0.0, 0.0, 0.0, 0.0, 0.0, 1.6137596235322323E9, 2021-02-19 16:33:43.532
10.0, -10486.7451171875, 20411.634765625, -12912.2451171875, 135324.75, -187500.015625, -99986.2109375, -187500.015625, -187500.015625, -0.12400000542402267, -0.6500000357627869, 0.7460000514984131, 192.0, 0.0, 0.0, 0.0, 0.0, 0.0, 0.0, 0.0, 0.0, 0.0, 1.613759623535214E9, 2021-02-19 16:33:43.535
31.0, -10274.3369140625, 20270.349609375, -13071.6123046875, 135166.34375, -187500.015625, -98899.40625, -187500.015625, -187500.015625, -0.12400000542402267, -0.6500000357627869, 0.7460000514984131, 192.0, 0.0, 0.0, 0.0, 0.0, 0.0, 0.0, 0.0, 0.0, 0.0, 1.6137596235394008E9, 2021-02-19 16:33:43.539
238.0, -9976.2314453125, 20143.927734375, -13169.3125, 135090.609375, -187500.015625, -89100.5546875, -187500.015625, -187500.015625, -0.12400000542402267, -0.6500000357627869, 0.7460000514984131, 192.0, 0.0, 0.0, 0.0, 0.0, 0.0, 0.0, 0.0, 0.0, 0.0, 1.6137596235602612E9, 2021-02-19 16:33:43.560
29.0, -9948.515625, 19925.8203125, -13413.7060546875, 134814.078125, -187500.015625, -96371.1328125, -187500.015625, -187500.015625, -0.12400000542402267, -0.6500000357627869, 0.7460000514984131, 192.0, 0.0, 0.0, 0.0, 0.0, 0.0, 0.0, 0.0, 0.0, 0.0, 1.613759623564247E9, 2021-02-19 16:33:43.564
68.0, -10333.2783203125, 20345.33984375, -12992.7109375, 135200.921875, -187500.015625, -96014.3515625, -187500.015625, -187500.015625, -0.12400000542402267, -0.6500000357627869, 0.7460000514984131, 192.0, 0.0, 0.0, 0.0, 0.0, 0.0, 0.0, 0.0, 0.0, 0.0, 1.6137596235703535E9, 2021-02-19 16:33:43.570
8.0, -10035.6650390625, 20073.1171875, -13246.3583984375, 134987.328125, -187500.015625, -96573.3046875, -187500.015625, -187500.015625, -0.12200000882148743, -0.6500000357627869, 0.7600000500679016, 192.0, 252.0, 48.0, 235.0, 176.0, 23.0, 192.0, 0.0, 0.0, 0.0, 1.6137596235733225E9, 2021-02-19 16:33:43.573
66.0, -9766.3486328125, 19904.541015625, -13425.7763671875, 134774.578125, -187500.015625, -93689.65625, -187500.015625, -187500.015625, -0.12200000882148743, -0.6500000357627869, 0.7600000500679016, 192.0, 0.0, 0.0, 0.0, 0.0, 0.0, 0.0, 0.0, 0.0, 0.0, 1.6137596235783868E9, 2021-02-19 16:33:43.578
24.0, -9897.330078125, 19918.30859375, -13420.478515625, 134824.28125, -187500.015625, -97532.6640625, -187500.015625, -187500.015625, -0.12200000882148743, -0.6500000357627869, 0.7600000500679016, 192.0, 0.0, 0.0, 0.0, 0.0, 0.0, 0.0, 0.0, 0.0, 0.0, 1.613759623584304E9, 2021-02-19 16:33:43.584
244.0, -10382.5859375, 20395.765625, -12945.50390625, 135313.328125, -187500.015625, -91644.984375, -187500.015625, -187500.015625, -0.12000000476837158, -0.6500000357627869, 0.7560000419616699, 192.0, 252.0, 64.0, 235.0, 176.0, 23.0, 160.0, 0.0, 0.0, 0.0, 1.6137596235873528E9, 2021-02-19 16:33:43.587
64.0, -10375.7685546875, 20371.625, -12973.01953125, 135227.09375, -187500.015625, -96546.7890625, -187500.015625, -187500.015625, -0.12000000476837158, -0.6500000357627869, 0.7560000419616699, 192.0, 0.0, 0.0, 0.0, 0.0, 0.0, 0.0, 0.0, 0.0, 0.0, 1.6137596236264083E9, 2021-02-19 16:33:43.626
22.0, -10493.00390625, 20315.544921875, -13032.4296875, 135206.03125, -187500.015625, -99908.625, -187500.015625, -187500.015625, -0.12000000476837158, -0.6500000357627869, 0.7560000419616699, 192.0, 0.0, 0.0, 0.0, 0.0, 0.0, 0.0, 0.0, 0.0, 0.0, 1.6137596236303227E9, 2021-02-19 16:33:43.630
247.0, -9931.5283203125, 20071.732421875, -13263.3232421875, 135003.171875, -187500.015625, -91434.4140625, -187500.015625, -187500.015625, -0.12000000476837158, -0.6500000357627869, 0.7560000419616699, 192.0, 0.0, 0.0, 0.0, 0.0, 0.0, 0.0, 0.0, 0.0, 0.0, 1.613759623637339E9, 2021-02-19 16:33:43.637
62.0, -9808.5263671875, 19912.23046875, -13422.8701171875, 134779.9375, -187500.015625, -93620.546875, -187500.015625, -187500.015625, -0.12000000476837158, -0.6500000357627869, 0.7560000419616699, 192.0, 0.0, 0.0, 0.0, 0.0, 0.0, 0.0, 0.0, 0.0, 0.0, 1.6137596236624231E9, 2021-02-19 16:33:43.662
60.0, -10366.2919921875, 20319.880859375, -13028.048828125, 135183.546875, -187500.015625, -96680.546875, -187500.015625, -187500.015625, -0.12000000476837158, -0.6500000357627869, 0.7560000419616699, 192.0, 0.0, 0.0, 0.0, 0.0, 0.0, 0.0, 0.0, 0.0, 0.0, 1.613759623693504E9, 2021-02-19 16:33:43.693
250.0, -10176.7265625, 20360.314453125, -12981.244140625, 135288.640625, -187500.015625, -94821.4609375, -187500.015625, -187500.015625, -0.12000000476837158, -0.6500000357627869, 0.7560000419616699, 192.0, 0.0, 0.0, 0.0, 0.0, 0.0, 0.0, 0.0, 0.0, 0.0, 1.613759623697412E9, 2021-02-19 16:33:43.697
251.0, -9926.9013671875, 20038.025390625, -13297.41015625, 134966.515625, -187500.015625, -93123.7578125, -187500.015625, -187500.015625, -0.12000000476837158, -0.6500000357627869, 0.7560000419616699, 192.0, 0.0, 0.0, 0.0, 0.0, 0.0, 0.0, 0.0, 0.0, 0.0, 1.613759623701418E9, 2021-02-19 16:33:43.701
18.0, -10520.25, 20400.50390625, -12946.6220703125, 135294.8125, -187500.015625, -100427.1875, -187500.015625, -187500.015625, -0.12000000476837158, -0.6540000438690186, 0.7660000324249268, 192.0, 252.0, 64.0, 235.0, 144.0, 23.0, 240.0, 0.0, 0.0, 0.0, 1.6137596237044575E9, 2021-02-19 16:33:43.704
58.0, -9853.408203125, 19875.439453125, -13468.04296875, 134742.140625, -187500.015625, -93450.3828125, -187500.015625, -187500.015625, -0.12000000476837158, -0.6540000438690186, 0.7660000324249268, 192.0, 0.0, 0.0, 0.0, 0.0, 0.0, 0.0, 0.0, 0.0, 0.0, 1.6137596237396033E9, 2021-02-19 16:33:43.739
36.0, -9933.71875, 19972.490234375, -13350.9423828125, 134874.375, -187500.015625, -96057.828125, -187500.015625, -187500.015625, -0.12000000476837158, -0.6540000438690186, 0.7660000324249268, 192.0, 0.0, 0.0, 0.0, 0.0, 0.0, 0.0, 0.0, 0.0, 0.0, 1.613759623760538E9, 2021-02-19 16:33:43.760
56.0, -10323.0859375, 20299.138671875, -13052.099609375, 135166.09375, -187500.015625, -96636.1328125, -187500.015625, -187500.015625, -0.12000000476837158, -0.6540000438690186, 0.7660000324249268, 192.0, 0.0, 0.0, 0.0, 0.0, 0.0, 0.0, 0.0, 0.0, 0.0, 1.6137596237634947E9, 2021-02-19 16:33:43.763
49.0, -9895.6982421875, 19910.84375, -13420.8583984375, 134800.03125, -187500.015625, -94140.25, -187500.015625, -187500.015625, -0.12000000476837158, -0.6540000438690186, 0.7660000324249268, 192.0, 0.0, 0.0, 0.0, 0.0, 0.0, 0.0, 0.0, 0.0, 0.0, 1.6137596237675333E9, 2021-02-19 16:33:43.767
43.0, -10381.22265625, 20363.310546875, -12966.73828125, 135235.15625, -187500.015625, -96303.25, -187500.015625, -187500.015625, -0.12000000476837158, -0.6540000438690186, 0.7660000324249268, 192.0, 0.0, 0.0, 0.0, 0.0, 0.0, 0.0, 0.0, 0.0, 0.0, 1.6137596237705102E9, 2021-02-19 16:33:43.770
70.0, -9705.1044921875, 19884.46875, -13436.728515625, 134754.734375, -187500.015625, -93442.828125, -187500.015625, -187500.015625, -0.12000000476837158, -0.6540000438690186, 0.7660000324249268, 192.0, 0.0, 0.0, 0.0, 0.0, 0.0, 0.0, 0.0, 0.0, 0.0, 1.6137596237735484E9, 2021-02-19 16:33:43.773
41.0, -9790.689453125, 19846.158203125, -13467.529296875, 134735.28125, -187500.015625, -93782.0390625, -187500.015625, -187500.015625, -0.12000000476837158, -0.6540000438690186, 0.7660000324249268, 192.0, 0.0, 0.0, 0.0, 0.0, 0.0, 0.0, 0.0, 0.0, 0.0, 1.6137596238115797E9, 2021-02-19 16:33:43.811
44.0, -10080.8154296875, 20119.498046875, -13207.5107421875, 135007.84375, -187500.015625, -95868.125, -187500.015625, -187500.015625, -0.12000000476837158, -0.6540000438690186, 0.7660000324249268, 192.0, 0.0, 0.0, 0.0, 0.0, 0.0, 0.0, 0.0, 0.0, 0.0, 1.6137596238155608E9, 2021-02-19 16:33:43.815
52.0, -10309.1162109375, 20295.337890625, -13049.484375, 135171.59375, -187500.015625, -96648.9140625, -187500.015625, -187500.015625, -0.12000000476837158, -0.6540000438690186, 0.7660000324249268, 192.0, 0.0, 0.0, 0.0, 0.0, 0.0, 0.0, 0.0, 0.0, 0.0, 1.613759623838751E9, 2021-02-19 16:33:43.838
50.0, -10053.2998046875, 19954.162109375, -13386.705078125, 134823.234375, -187500.015625, -93709.6640625, -187500.015625, -187500.015625, -0.12000000476837158, -0.6540000438690186, 0.7660000324249268, 192.0, 0.0, 0.0, 0.0, 0.0, 0.0, 0.0, 0.0, 0.0, 0.0, 1.6137596238415968E9, 2021-02-19 16:33:43.841
71.0, -9921.2236328125, 20003.939453125, -13324.857421875, 134852.984375, -187500.015625, -93252.7265625, -187500.015625, -187500.015625, -0.12000000476837158, -0.6540000438690186, 0.7660000324249268, 192.0, 0.0, 0.0, 0.0, 0.0, 0.0, 0.0, 0.0, 0.0, 0.0, 1.6137596238456607E9, 2021-02-19 16:33:43.845
92.0, -10277.2197265625, 20265.23046875, -13085.5380859375, 135086.25, -187500.015625, -98069.6640625, -187500.015625, -187500.015625, -0.12000000476837158, -0.6540000438690186, 0.7660000324249268, 192.0, 0.0, 0.0, 0.0, 0.0, 0.0, 0.0, 0.0, 0.0, 0.0, 1.6137596238485785E9, 2021-02-19 16:33:43.848
73.0, -10052.31640625, 20163.5078125, -13168.306640625, 135026.578125, -187500.015625, -95275.78125, -187500.015625, -187500.015625, -0.12000000476837158, -0.6540000438690186, 0.7660000324249268, 192.0, 0.0, 0.0, 0.0, 0.0, 0.0, 0.0, 0.0, 0.0, 0.0, 1.6137596238606577E9, 2021-02-19 16:33:43.860
90.0, -10211.21484375, 20359.912109375, -12988.978515625, 135205.40625, -187500.015625, -98692.265625, -187500.015625, -187500.015625, -0.12000000476837158, -0.6540000438690186, 0.7660000324249268, 192.0, 0.0, 0.0, 0.0, 0.0, 0.0, 0.0, 0.0, 0.0, 0.0, 1.613759623866582E9, 2021-02-19 16:33:43.866
77.0, -10138.5498046875, 20259.6875, -13082.2294921875, 135113.8125, -187500.015625, -94823.7421875, -187500.015625, -187500.015625, -0.11800000816583633, -0.6440000534057617, 0.7580000162124634, 192.0, 252.0, 80.0, 235.0, 224.0, 23.0, 176.0, 0.0, 0.0, 0.0, 1.6137596238696575E9, 2021-02-19 16:33:43.869
101.0, -10563.724609375, 20483.00390625, -12869.3740234375, 135293.546875, -187500.015625, -103356.1875, -187500.015625, -187500.015625, -0.11800000816583633, -0.6440000534057617, 0.7580000162124634, 192.0, 0.0, 0.0, 0.0, 0.0, 0.0, 0.0, 0.0, 0.0, 0.0, 1.6137596238796296E9, 2021-02-19 16:33:43.879
120.0, -10122.568359375, 20050.876953125, -13301.90234375, 134868.25, -187500.015625, -108586.1328125, -187500.015625, -187500.015625, -0.11800000816583633, -0.6440000534057617, 0.7580000162124634, 192.0, 0.0, 0.0, 0.0, 0.0, 0.0, 0.0, 0.0, 0.0, 0.0, 1.6137596239046252E9, 2021-02-19 16:33:43.904
82.0, -9899.1845703125, 20146.341796875, -13197.6767578125, 135001.46875, -187500.015625, -94344.515625, -187500.015625, -187500.015625, -0.11800000816583633, -0.6440000534057617, 0.7580000162124634, 192.0, 0.0, 0.0, 0.0, 0.0, 0.0, 0.0, 0.0, 0.0, 0.0, 1.6137596239077456E9, 2021-02-19 16:33:43.907
86.0, -10099.322265625, 20191.314453125, -13157.9345703125, 135038.640625, -187500.015625, -96353.6484375, -187500.015625, -187500.015625, -0.11800000816583633, -0.6440000534057617, 0.7580000162124634, 192.0, 0.0, 0.0, 0.0, 0.0, 0.0, 0.0, 0.0, 0.0, 0.0, 1.6137596239126372E9, 2021-02-19 16:33:43.912
118.0, -10680.4228515625, 20468.408203125, -12892.240234375, 135268.90625, -187500.015625, -110031.6875, -187500.015625, -187500.015625, -0.11800000816583633, -0.6440000534057617, 0.7580000162124634, 192.0, 0.0, 0.0, 0.0, 0.0, 0.0, 0.0, 0.0, 0.0, 0.0, 1.6137596239187431E9, 2021-02-19 16:33:43.918
106.0, -10560.0361328125, 20518.677734375, -12834.5048828125, 135339.421875, -187500.015625, -106500.15625, -187500.015625, -187500.015625, -0.11800000816583633, -0.6460000276565552, 0.7520000338554382, 192.0, 252.0, 80.0, 235.0, 208.0, 23.0, 128.0, 0.0, 0.0, 0.0, 1.613759623921658E9, 2021-02-19 16:33:43.921
94.0, -10336.318359375, 20414.96484375, -12931.9140625, 135252.0625, -187500.015625, -101115.1328125, -187500.015625, -187500.015625, -0.11800000816583633, -0.6460000276565552, 0.7520000338554382, 192.0, 0.0, 0.0, 0.0, 0.0, 0.0, 0.0, 0.0, 0.0, 0.0, 1.613759623951825E9, 2021-02-19 16:33:43.951
95.0, -9995.185546875, 20113.328125, -13226.845703125, 134954.578125, -187500.015625, -99517.3203125, -187500.015625, -187500.015625, -0.11800000816583633, -0.6460000276565552, 0.7520000338554382, 192.0, 0.0, 0.0, 0.0, 0.0, 0.0, 0.0, 0.0, 0.0, 0.0, 1.6137596239767308E9, 2021-02-19 16:33:43.976
138.0, -10414.2587890625, 20188.498046875, -13173.0, 134967.71875, -187500.015625, -112705.046875, -187500.015625, -187500.015625, -0.11800000816583633, -0.6460000276565552, 0.7520000338554382, 192.0, 0.0, 0.0, 0.0, 0.0, 0.0, 0.0, 0.0, 0.0, 0.0, 1.613759624018145E9, 2021-02-19 16:33:44.018
109.0, -10475.904296875, 20339.21484375, -13015.755859375, 135142.53125, -187500.015625, -105501.5078125, -187500.015625, -187500.015625, -0.11800000816583633, -0.6460000276565552, 0.7520000338554382, 192.0, 0.0, 0.0, 0.0, 0.0, 0.0, 0.0, 0.0, 0.0, 0.0, 1.613759624042846E9, 2021-02-19 16:33:44.042
146.0, -10280.7294921875, 20062.92578125, -13298.68359375, 134843.203125, -187500.015625, -113128.6328125, -187500.015625, -187500.015625, -0.12000000476837158, -0.6460000276565552, 0.7560000419616699, 192.0, 252.0, 64.0, 235.0, 208.0, 23.0, 160.0, 0.0, 0.0, 0.0, 1.6137596241269083E9, 2021-02-19 16:33:44.126
123.0, -10534.734375, 20442.234375, -12920.4033203125, 135248.078125, -187500.015625, -111770.609375, -187500.015625, -187500.015625, -0.12000000476837158, -0.6460000276565552, 0.7560000419616699, 192.0, 0.0, 0.0, 0.0, 0.0, 0.0, 0.0, 0.0, 0.0, 0.0, 1.6137596241310084E9, 2021-02-19 16:33:44.131
136.0, -10328.71875, 20276.65234375, -13079.7265625, 135080.578125, -187500.015625, -113940.46875, -187500.015625, -187500.015625, -0.11800000816583633, -0.6520000100135803, 0.7500000596046448, 192.0, 252.0, 80.0, 235.0, 160.0, 23.0, 112.0, 0.0, 0.0, 0.0, 1.6137596241620271E9, 2021-02-19 16:33:44.162
144.0, -10498.4580078125, 20279.892578125, -13085.8955078125, 135073.78125, -187500.015625, -115404.5546875, -187500.015625, -187500.015625, -0.11800000816583633, -0.6520000100135803, 0.7500000596046448, 192.0, 0.0, 0.0, 0.0, 0.0, 0.0, 0.0, 0.0, 0.0, 0.0, 1.613759624167972E9, 2021-02-19 16:33:44.167
134.0, -10528.2080078125, 20284.162109375, -13081.08984375, 135063.5, -187500.015625, -112379.46875, -187500.015625, -187500.015625, -0.11800000816583633, -0.6520000100135803, 0.7500000596046448, 192.0, 0.0, 0.0, 0.0, 0.0, 0.0, 0.0, 0.0, 0.0, 0.0, 1.6137596241750011E9, 2021-02-19 16:33:44.175
127.0, -10588.6240234375, 20465.369140625, -12898.3193359375, 135264.609375, -187500.015625, -112996.359375, -187500.015625, -187500.015625, -0.11800000816583633, -0.6520000100135803, 0.7500000596046448, 192.0, 0.0, 0.0, 0.0, 0.0, 0.0, 0.0, 0.0, 0.0, 0.0, 1.6137596241779408E9, 2021-02-19 16:33:44.177
128.0, -10198.02734375, 20176.31640625, -13181.60546875, 134987.40625, -187500.015625, -111624.96875, -187500.015625, -187500.015625, -0.11800000816583633, -0.6520000100135803, 0.7500000596046448, 192.0, 0.0, 0.0, 0.0, 0.0, 0.0, 0.0, 0.0, 0.0, 0.0, 1.6137596241809652E9, 2021-02-19 16:33:44.180
218.0, -10794.796875, 20505.04296875, -12875.3642578125, 135230.328125, -187500.015625, -135381.09375, -187500.015625, -187500.015625, -0.11800000816583633, -0.6520000100135803, 0.7500000596046448, 192.0, 0.0, 0.0, 0.0, 0.0, 0.0, 0.0, 0.0, 0.0, 0.0, 1.6137596241851315E9, 2021-02-19 16:33:44.185
130.0, -10587.8642578125, 20322.5625, -13044.611328125, 135106.359375, -187500.015625, -111948.1953125, -187500.015625, -187500.015625, -0.11800000816583633, -0.6520000100135803, 0.7500000596046448, 192.0, 0.0, 0.0, 0.0, 0.0, 0.0, 0.0, 0.0, 0.0, 0.0, 1.6137596241881487E9, 2021-02-19 16:33:44.188
139.0, -10679.23828125, 20476.275390625, -12892.0615234375, 135259.078125, -187500.015625, -114919.65625, -187500.015625, -187500.015625, -0.11800000816583633, -0.6520000100135803, 0.7500000596046448, 192.0, 0.0, 0.0, 0.0, 0.0, 0.0, 0.0, 0.0, 0.0, 0.0, 1.6137596241929936E9, 2021-02-19 16:33:44.192
