%OpenBCI Raw EEG Data
%Number of channels = 8
%Sample Rate = 250 Hz
%Board = OpenBCI_GUI$BoardCytonSerial
Sample Index, EXG Channel 0, EXG Channel 1, EXG Channel 2, EXG Channel 3, EXG Channel 4, EXG Channel 5, EXG Channel 6, EXG Channel 7, Accel Channel 0, Accel Channel 1, Accel Channel 2, Other, Other, Other, Other, Other, Other, Other, Analog Channel 0, Analog Channel 1, Analog Channel 2, Timestamp, Timestamp (Formatted)
0.0, 0.0, 0.0, 0.0, 0.0, 0.0, 0.0, 0.0, 0.0, -0.12400000542402267, -0.6580000519752502, 0.7440000176429749, 192.0, 252.0, 32.0, 235.0, 112.0, 23.0, 64.0, 0.0, 0.0, 0.0, 1.6137595236692233E9, 2021-02-19 16:32:03.669
222.0, -10949.4931640625, 19866.966796875, -13876.4765625, 135367.34375, -187500.015625, -140301.5625, -187500.015625, -187500.015625, -0.12400000542402267, -0.6580000519752502, 0.7440000176429749, 192.0, 0.0, 0.0, 0.0, 0.0, 0.0, 0.0, 0.0, 0.0, 0.0, 1.613759523753579E9, 2021-02-19 16:32:03.753
223.0, -10836.818359375, 19835.697265625, -13906.7412109375, 135344.34375, -187500.015625, -140910.328125, -187500.015625, -187500.015625, -0.12400000542402267, -0.6580000519752502, 0.7440000176429749, 192.0, 0.0, 0.0, 0.0, 0.0, 0.0, 0.0, 0.0, 0.0, 0.0, 1.6137595251600552E9, 2021-02-19 16:32:05.160
231.0, -10940.150390625, 19865.9609375, -13881.86328125, 135373.0, -187500.015625, -140503.390625, -187500.015625, -187500.015625, -0.12400000542402267, -0.6580000519752502, 0.7440000176429749, 192.0, 0.0, 0.0, 0.0, 0.0, 0.0, 0.0, 0.0, 0.0, 0.0, 1.6137595251910033E9, 2021-02-19 16:32:05.191
254.0, -10554.11328125, 19582.609375, -14159.6064453125, 135104.953125, -187500.015625, -138388.453125, -187500.015625, -187500.015625, -0.12800000607967377, -0.6480000019073486, 0.7520000338554382, 192.0, 252.0, 0.0, 235.0, 192.0, 23.0, 128.0, 0.0, 0.0, 0.0, 1.6137595272574456E9, 2021-02-19 16:32:07.257
21.0, -10310.099609375, 20092.541015625, -12936.09375, 135260.53125, -187500.015625, -136779.5, -187500.015625, -187500.015625, -0.12800000607967377, -0.6480000019073486, 0.7520000338554382, 192.0, 0.0, 0.0, 0.0, 0.0, 0.0, 0.0, 0.0, 0.0, 0.0, 1.6137595274085445E9, 2021-02-19 16:32:07.408
140.0, -9927.75, 19912.765625, -13122.5302734375, 135028.65625, -187500.015625, -133864.53125, -187500.015625, -187500.015625, -0.12800000607967377, -0.6480000019073486, 0.7520000338554382, 192.0, 0.0, 0.0, 0.0, 0.0, 0.0, 0.0, 0.0, 0.0, 0.0, 1.6137595278701885E9, 2021-02-19 16:32:07.870
147.0, -10338.888671875, 20017.86328125, -13066.9853515625, 134940.5, -187500.015625, -137442.578125, -187500.015625, -187500.015625, -0.12800000607967377, -0.6480000019073486, 0.7520000338554382, 192.0, 0.0, 0.0, 0.0, 0.0, 0.0, 0.0, 0.0, 0.0, 0.0, 1.613759528114358E9, 2021-02-19 16:32:08.114
148.0, -10258.0419921875, 20127.142578125, -12953.55078125, 135059.046875, -187500.015625, -138410.953125, -187500.015625, -187500.015625, -0.12800000607967377, -0.6480000019073486, 0.7520000338554382, 192.0, 0.0, 0.0, 0.0, 0.0, 0.0, 0.0, 0.0, 0.0, 0.0, 1.613759528118395E9, 2021-02-19 16:32:08.118
13.0, -10278.494140625, 20146.140625, -12937.79296875, 135095.6875, -187500.015625, -137604.015625, -187500.015625, -187500.015625, -0.12800000607967377, -0.6480000019073486, 0.7520000338554382, 192.0, 0.0, 0.0, 0.0, 0.0, 0.0, 0.0, 0.0, 0.0, 0.0, 1.6137595281775289E9, 2021-02-19 16:32:08.177
84.0, -10349.2822265625, 20094.41796875, -12994.7001953125, 135036.09375, -187500.015625, -137522.921875, -187500.015625, -187500.015625, -0.12800000607967377, -0.6480000019073486, 0.7520000338554382, 192.0, 0.0, 0.0, 0.0, 0.0, 0.0, 0.0, 0.0, 0.0, 0.0, 1.6137595284549E9, 2021-02-19 16:32:08.454
85.0, -10097.958984375, 19922.154296875, -13160.7734375, 134870.0, -187500.015625, -136438.859375, -187500.015625, -187500.015625, -0.12800000607967377, -0.6480000019073486, 0.7520000338554382, 192.0, 0.0, 0.0, 0.0, 0.0, 0.0, 0.0, 0.0, 0.0, 0.0, 1.613759528571986E9, 2021-02-19 16:32:08.571
86.0, -10042.0126953125, 19828.3203125, -13254.4501953125, 134770.671875, -187500.015625, -135208.578125, -187500.015625, -187500.015625, -0.10600000619888306, -0.6680000424385071, 0.7520000338554382, 192.0, 252.0, 176.0, 235.0, 32.0, 23.0, 128.0, 0.0, 0.0, 0.0, 1.613759528703133E9, 2021-02-19 16:32:08.703
87.0, -10328.6513671875, 20026.939453125, -13064.169921875, 134958.90625, -187500.015625, -136130.875, -187500.015625, -187500.015625, -0.10600000619888306, -0.6680000424385071, 0.7520000338554382, 192.0, 0.0, 0.0, 0.0, 0.0, 0.0, 0.0, 0.0, 0.0, 0.0, 1.6137595287781155E9, 2021-02-19 16:32:08.778
180.0, -10304.4443359375, 20118.89453125, -12972.1923828125, 135033.296875, -187500.015625, -137988.015625, -187500.015625, -187500.015625, -0.10600000619888306, -0.6680000424385071, 0.7520000338554382, 192.0, 0.0, 0.0, 0.0, 0.0, 0.0, 0.0, 0.0, 0.0, 0.0, 1.6137595287851985E9, 2021-02-19 16:32:08.785
200.0, -10391.8173828125, 20046.49609375, -13033.771484375, 134934.125, -187500.015625, -137307.234375, -187500.015625, -187500.015625, -0.10600000619888306, -0.6680000424385071, 0.7520000338554382, 192.0, 0.0, 0.0, 0.0, 0.0, 0.0, 0.0, 0.0, 0.0, 0.0, 1.613759528835284E9, 2021-02-19 16:32:08.835
231.0, -10136.716796875, 19917.080078125, -13151.9892578125, 134791.65625, -187500.015625, -137317.0625, -187500.015625, -187500.015625, -0.10600000619888306, -0.6680000424385071, 0.7520000338554382, 192.0, 0.0, 0.0, 0.0, 0.0, 0.0, 0.0, 0.0, 0.0, 0.0, 1.6137595288562193E9, 2021-02-19 16:32:08.856
198.0, -10066.912109375, 19841.53125, -13234.154296875, 134747.734375, -187500.015625, -136637.4375, -187500.015625, -187500.015625, -0.10600000619888306, -0.6680000424385071, 0.7520000338554382, 192.0, 0.0, 0.0, 0.0, 0.0, 0.0, 0.0, 0.0, 0.0, 0.0, 1.6137595289694488E9, 2021-02-19 16:32:08.969
254.0, -10428.67578125, 19944.193359375, -13137.259765625, 134775.734375, -187500.015625, -136866.1875, -187500.015625, -187500.015625, -0.11800000816583633, -0.6620000600814819, 0.7420000433921814, 192.0, 252.0, 80.0, 235.0, 80.0, 23.0, 48.0, 0.0, 0.0, 0.0, 1.613759529159685E9, 2021-02-19 16:32:09.159
32.0, -10352.4560546875, 20049.87109375, -13035.58203125, 134874.3125, -187500.015625, -138188.78125, -187500.015625, -187500.015625, -0.11800000816583633, -0.6620000600814819, 0.7420000433921814, 192.0, 0.0, 0.0, 0.0, 0.0, 0.0, 0.0, 0.0, 0.0, 0.0, 1.6137595292246838E9, 2021-02-19 16:32:09.224
72.0, -10074.2880859375, 19776.5546875, -13286.546875, 134594.0, -187500.015625, -136703.71875, -187500.015625, -187500.015625, -0.11800000816583633, -0.6620000600814819, 0.7420000433921814, 192.0, 0.0, 0.0, 0.0, 0.0, 0.0, 0.0, 0.0, 0.0, 0.0, 1.613759529357812E9, 2021-02-19 16:32:09.357
73.0, -10333.4794921875, 19946.248046875, -13124.3623046875, 134755.421875, -187500.015625, -137353.28125, -187500.015625, -187500.015625, -0.11800000816583633, -0.6620000600814819, 0.7420000433921814, 192.0, 0.0, 0.0, 0.0, 0.0, 0.0, 0.0, 0.0, 0.0, 0.0, 1.6137595294269829E9, 2021-02-19 16:32:09.426
74.0, -10442.9580078125, 20060.466796875, -13011.642578125, 134876.28125, -187500.015625, -138842.421875, -187500.015625, -187500.015625, -0.11800000816583633, -0.6620000600814819, 0.7420000433921814, 192.0, 0.0, 0.0, 0.0, 0.0, 0.0, 0.0, 0.0, 0.0, 0.0, 1.6137595295059972E9, 2021-02-19 16:32:09.505
119.0, -10380.0380859375, 19932.859375, -13136.9912109375, 134761.234375, -187500.015625, -137119.546875, -187500.015625, -187500.015625, -0.11800000816583633, -0.6620000600814819, 0.7420000433921814, 192.0, 0.0, 0.0, 0.0, 0.0, 0.0, 0.0, 0.0, 0.0, 0.0, 1.6137595295091584E9, 2021-02-19 16:32:09.509
161.0, -10419.1982421875, 19958.833984375, -13110.5498046875, 134816.078125, -187500.015625, -137431.546875, -187500.015625, -187500.015625, -0.11800000816583633, -0.6620000600814819, 0.7420000433921814, 192.0, 0.0, 0.0, 0.0, 0.0, 0.0, 0.0, 0.0, 0.0, 0.0, 1.6137595295141113E9, 2021-02-19 16:32:09.514
77.0, -10303.2822265625, 19821.5703125, -13248.5263671875, 134626.359375, -187500.015625, -137015.828125, -187500.015625, -187500.015625, -0.11800000816583633, -0.6620000600814819, 0.7420000433921814, 192.0, 0.0, 0.0, 0.0, 0.0, 0.0, 0.0, 0.0, 0.0, 0.0, 1.6137595295210304E9, 2021-02-19 16:32:09.521
159.0, -10154.84375, 19768.28515625, -13294.8837890625, 134640.21875, -187500.015625, -137004.140625, -187500.015625, -187500.015625, -0.11800000816583633, -0.6620000600814819, 0.7420000433921814, 192.0, 0.0, 0.0, 0.0, 0.0, 0.0, 0.0, 0.0, 0.0, 0.0, 1.613759529590288E9, 2021-02-19 16:32:09.590
115.0, -10391.4599609375, 19982.99609375, -13086.587890625, 134810.734375, -187500.015625, -137469.84375, -187500.015625, -187500.015625, -0.11800000816583633, -0.6620000600814819, 0.7420000433921814, 192.0, 0.0, 0.0, 0.0, 0.0, 0.0, 0.0, 0.0, 0.0, 0.0, 1.6137595297073193E9, 2021-02-19 16:32:09.707
177.0, -10205.60546875, 19799.443359375, -13267.97265625, 134666.15625, -187500.015625, -136299.28125, -187500.015625, -187500.015625, -0.11800000816583633, -0.6620000600814819, 0.7420000433921814, 192.0, 0.0, 0.0, 0.0, 0.0, 0.0, 0.0, 0.0, 0.0, 0.0, 1.613759529825405E9, 2021-02-19 16:32:09.825
81.0, -10238.796875, 19800.359375, -13275.05859375, 134612.4375, -187500.015625, -136773.3125, -187500.015625, -187500.015625, -0.11800000816583633, -0.6620000600814819, 0.7420000433921814, 192.0, 0.0, 0.0, 0.0, 0.0, 0.0, 0.0, 0.0, 0.0, 0.0, 1.613759529870426E9, 2021-02-19 16:32:09.870
214.0, -10069.4609375, 19704.603515625, -13347.7685546875, 134585.859375, -187500.015625, -135094.28125, -187500.015625, -187500.015625, -0.11600000411272049, -0.6640000343322754, 0.7380000352859497, 192.0, 252.0, 96.0, 235.0, 64.0, 23.0, 16.0, 0.0, 0.0, 0.0, 1.6137595298854713E9, 2021-02-19 16:32:09.885
4.0, -9973.5263671875, 19643.8515625, -13398.9990234375, 134534.09375, -187500.015625, -132337.390625, -187500.015625, -187500.015625, -0.11600000411272049, -0.6640000343322754, 0.7380000352859497, 192.0, 0.0, 0.0, 0.0, 0.0, 0.0, 0.0, 0.0, 0.0, 0.0, 1.613759529901467E9, 2021-02-19 16:32:09.901
212.0, -10428.18359375, 20008.990234375, -13050.9375, 134885.53125, -187500.015625, -137487.203125, -187500.015625, -187500.015625, -0.11600000411272049, -0.6640000343322754, 0.7380000352859497, 192.0, 0.0, 0.0, 0.0, 0.0, 0.0, 0.0, 0.0, 0.0, 0.0, 1.6137595299044802E9, 2021-02-19 16:32:09.904
173.0, -10277.935546875, 19847.052734375, -13223.8955078125, 134712.9375, -187500.015625, -136514.96875, -187500.015625, -187500.015625, -0.11600000411272049, -0.6640000343322754, 0.7380000352859497, 192.0, 0.0, 0.0, 0.0, 0.0, 0.0, 0.0, 0.0, 0.0, 0.0, 1.6137595299086027E9, 2021-02-19 16:32:09.908
32.0, -10154.5087890625, 19945.958984375, -13108.783203125, 134848.609375, -187500.015625, -136384.625, -187500.015625, -187500.015625, -0.11600000411272049, -0.6640000343322754, 0.7380000352859497, 192.0, 0.0, 0.0, 0.0, 0.0, 0.0, 0.0, 0.0, 0.0, 0.0, 1.6137595299225893E9, 2021-02-19 16:32:09.922
0.0, -10090.44921875, 19675.658203125, -13369.78515625, 134564.34375, -187500.015625, -132333.8125, -187500.015625, -187500.015625, -0.11600000411272049, -0.6640000343322754, 0.7380000352859497, 192.0, 0.0, 0.0, 0.0, 0.0, 0.0, 0.0, 0.0, 0.0, 0.0, 1.6137595299295235E9, 2021-02-19 16:32:09.929
30.0, -10323.9794921875, 19927.919921875, -13131.515625, 134815.90625, -187500.015625, -135465.0, -187500.015625, -187500.015625, -0.11600000411272049, -0.6640000343322754, 0.7380000352859497, 192.0, 0.0, 0.0, 0.0, 0.0, 0.0, 0.0, 0.0, 0.0, 0.0, 1.6137595299465468E9, 2021-02-19 16:32:09.946
208.0, -10393.359375, 19982.033203125, -13076.4404296875, 134860.15625, -187500.015625, -137681.171875, -187500.015625, -187500.015625, -0.11600000411272049, -0.6640000343322754, 0.7380000352859497, 192.0, 0.0, 0.0, 0.0, 0.0, 0.0, 0.0, 0.0, 0.0, 0.0, 1.613759529953561E9, 2021-02-19 16:32:09.953
251.0, -10063.693359375, 19692.087890625, -13360.4638671875, 134581.09375, -187500.015625, -133317.5625, -187500.015625, -187500.015625, -0.11600000411272049, -0.6640000343322754, 0.7380000352859497, 192.0, 0.0, 0.0, 0.0, 0.0, 0.0, 0.0, 0.0, 0.0, 0.0, 1.61375952995852E9, 2021-02-19 16:32:09.958
28.0, -10100.126953125, 19868.53125, -13186.0537109375, 134772.96875, -187500.015625, -135810.6875, -187500.015625, -187500.015625, -0.11600000411272049, -0.6640000343322754, 0.7380000352859497, 192.0, 0.0, 0.0, 0.0, 0.0, 0.0, 0.0, 0.0, 0.0, 0.0, 1.6137595300087078E9, 2021-02-19 16:32:10.008
26.0, -10325.142578125, 19970.791015625, -13088.33203125, 134849.453125, -187500.015625, -135456.5, -187500.015625, -187500.015625, -0.11600000411272049, -0.6640000343322754, 0.7380000352859497, 192.0, 0.0, 0.0, 0.0, 0.0, 0.0, 0.0, 0.0, 0.0, 0.0, 1.6137595300196865E9, 2021-02-19 16:32:10.019
167.0, -10193.5126953125, 19865.537109375, -13197.6767578125, 134739.390625, -187500.015625, -137678.984375, -187500.015625, -187500.015625, -0.11600000411272049, -0.6640000343322754, 0.7380000352859497, 192.0, 0.0, 0.0, 0.0, 0.0, 0.0, 0.0, 0.0, 0.0, 0.0, 1.6137595300368228E9, 2021-02-19 16:32:10.036
24.0, -10016.978515625, 19859.345703125, -13192.2451171875, 134763.328125, -187500.015625, -135168.1875, -187500.015625, -187500.015625, -0.11600000411272049, -0.6640000343322754, 0.7380000352859497, 192.0, 0.0, 0.0, 0.0, 0.0, 0.0, 0.0, 0.0, 0.0, 0.0, 1.6137595300415947E9, 2021-02-19 16:32:10.041
247.0, -9986.2451171875, 19673.46875, -13381.7880859375, 134560.984375, -187500.015625, -133592.421875, -187500.015625, -187500.015625, -0.11600000411272049, -0.6640000343322754, 0.7380000352859497, 192.0, 0.0, 0.0, 0.0, 0.0, 0.0, 0.0, 0.0, 0.0, 0.0, 1.613759530044676E9, 2021-02-19 16:32:10.044
202.0, -10181.5322265625, 19786.9921875, -13267.2578125, 134661.515625, -187500.015625, -135709.59375, -187500.015625, -187500.015625, -0.11600000411272049, -0.6640000343322754, 0.7380000352859497, 192.0, 0.0, 0.0, 0.0, 0.0, 0.0, 0.0, 0.0, 0.0, 0.0, 1.613759530052775E9, 2021-02-19 16:32:10.052
50.0, -10144.71875, 19759.65625, -13292.224609375, 134677.65625, -187500.015625, -135545.359375, -187500.015625, -187500.015625, -0.11600000411272049, -0.6640000343322754, 0.7380000352859497, 192.0, 0.0, 0.0, 0.0, 0.0, 0.0, 0.0, 0.0, 0.0, 0.0, 1.6137595300937407E9, 2021-02-19 16:32:10.093
22.0, -10387.4140625, 20020.2109375, -13039.1357421875, 134904.75, -187500.015625, -135309.71875, -187500.015625, -187500.015625, -0.11600000411272049, -0.6640000343322754, 0.7380000352859497, 192.0, 0.0, 0.0, 0.0, 0.0, 0.0, 0.0, 0.0, 0.0, 0.0, 1.6137595300997176E9, 2021-02-19 16:32:10.099
180.0, -10077.6640625, 19802.392578125, -13259.8369140625, 134685.21875, -187500.015625, -136678.28125, -187500.015625, -187500.015625, -0.11600000411272049, -0.6640000343322754, 0.7380000352859497, 192.0, 0.0, 0.0, 0.0, 0.0, 0.0, 0.0, 0.0, 0.0, 0.0, 1.613759530149753E9, 2021-02-19 16:32:10.149
48.0, -10427.87109375, 20030.359375, -13025.568359375, 134949.015625, -187500.015625, -137787.6875, -187500.015625, -187500.015625, -0.11600000411272049, -0.6640000343322754, 0.7380000352859497, 192.0, 0.0, 0.0, 0.0, 0.0, 0.0, 0.0, 0.0, 0.0, 0.0, 1.6137595301527297E9, 2021-02-19 16:32:10.152
224.0, -10420.13671875, 20034.962890625, -13027.37890625, 134907.765625, -187500.015625, -136515.9375, -187500.015625, -187500.015625, -0.1120000034570694, -0.6700000166893005, 0.7360000610351562, 192.0, 252.0, 128.0, 235.0, 16.0, 23.0, 0.0, 0.0, 0.0, 0.0, 1.61375953015777E9, 2021-02-19 16:32:10.157
46.0, -10195.2109375, 19776.46484375, -13275.3935546875, 134688.171875, -187500.015625, -135446.3125, -187500.015625, -187500.015625, -0.1120000034570694, -0.6700000166893005, 0.7360000610351562, 192.0, 0.0, 0.0, 0.0, 0.0, 0.0, 0.0, 0.0, 0.0, 0.0, 1.613759530160799E9, 2021-02-19 16:32:10.160
8.0, -9870.57421875, 19697.205078125, -13348.6845703125, 134593.546875, -187500.015625, -132760.734375, -187500.015625, -187500.015625, -0.1120000034570694, -0.6700000166893005, 0.7360000610351562, 192.0, 0.0, 0.0, 0.0, 0.0, 0.0, 0.0, 0.0, 0.0, 0.0, 1.613759530165886E9, 2021-02-19 16:32:10.165
43.0, -10490.791015625, 20031.9453125, -13026.8642578125, 134935.421875, -187500.015625, -136949.671875, -187500.015625, -187500.015625, -0.1120000034570694, -0.6700000166893005, 0.7360000610351562, 192.0, 0.0, 0.0, 0.0, 0.0, 0.0, 0.0, 0.0, 0.0, 0.0, 1.6137595301718147E9, 2021-02-19 16:32:10.171
41.0, -10160.6552734375, 19795.509765625, -13256.9755859375, 134714.0, -187500.015625, -135638.890625, -187500.015625, -187500.015625, -0.1120000034570694, -0.6700000166893005, 0.7360000610351562, 192.0, 0.0, 0.0, 0.0, 0.0, 0.0, 0.0, 0.0, 0.0, 0.0, 1.6137595301818247E9, 2021-02-19 16:32:10.181
36.0, -10260.166015625, 19926.7578125, -13132.119140625, 134836.265625, -187500.015625, -136844.578125, -187500.015625, -187500.015625, -0.1120000034570694, -0.6700000166893005, 0.7360000610351562, 192.0, 0.0, 0.0, 0.0, 0.0, 0.0, 0.0, 0.0, 0.0, 0.0, 1.6137595301847737E9, 2021-02-19 16:32:10.184
58.0, -10128.40234375, 19735.962890625, -13322.130859375, 134656.578125, -187500.015625, -135885.53125, -187500.015625, -187500.015625, -0.1120000034570694, -0.6700000166893005, 0.7360000610351562, 192.0, 0.0, 0.0, 0.0, 0.0, 0.0, 0.0, 0.0, 0.0, 0.0, 1.6137595301887767E9, 2021-02-19 16:32:10.188
39.0, -10538.6015625, 20015.6953125, -13047.8525390625, 134916.21875, -187500.015625, -136947.078125, -187500.015625, -187500.015625, -0.1120000034570694, -0.6700000166893005, 0.7360000610351562, 192.0, 0.0, 0.0, 0.0, 0.0, 0.0, 0.0, 0.0, 0.0, 0.0, 1.61375953019195E9, 2021-02-19 16:32:10.191
85.0, -10500.357421875, 20039.43359375, -13028.4736328125, 134973.78125, -187500.015625, -138352.875, -187500.015625, -187500.015625, -0.1120000034570694, -0.6700000166893005, 0.7360000610351562, 192.0, 0.0, 0.0, 0.0, 0.0, 0.0, 0.0, 0.0, 0.0, 0.0, 1.6137595301947649E9, 2021-02-19 16:32:10.194
54.0, -10133.4091796875, 19734.533203125, -13320.9462890625, 134651.6875, -187500.015625, -135691.5625, -187500.015625, -187500.015625, -0.1120000034570694, -0.6700000166893005, 0.7360000610351562, 192.0, 0.0, 0.0, 0.0, 0.0, 0.0, 0.0, 0.0, 0.0, 0.0, 1.6137595301988027E9, 2021-02-19 16:32:10.198
105.0, -10349.4384765625, 19843.23046875, -13215.826171875, 134798.921875, -187500.015625, -137787.40625, -187500.015625, -187500.015625, -0.1120000034570694, -0.6700000166893005, 0.7360000610351562, 192.0, 0.0, 0.0, 0.0, 0.0, 0.0, 0.0, 0.0, 0.0, 0.0, 1.613759530202122E9, 2021-02-19 16:32:10.202
83.0, -10078.2890625, 19729.638671875, -13329.1494140625, 134671.953125, -187500.015625, -136599.578125, -187500.015625, -187500.015625, -0.1120000034570694, -0.6700000166893005, 0.7360000610351562, 192.0, 0.0, 0.0, 0.0, 0.0, 0.0, 0.0, 0.0, 0.0, 0.0, 1.6137595302159505E9, 2021-02-19 16:32:10.215
61.0, -10316.537109375, 19962.029296875, -13097.49609375, 134885.9375, -187500.015625, -137663.546875, -187500.015625, -187500.015625, -0.1120000034570694, -0.6700000166893005, 0.7360000610351562, 192.0, 0.0, 0.0, 0.0, 0.0, 0.0, 0.0, 0.0, 0.0, 0.0, 1.6137595302268708E9, 2021-02-19 16:32:10.226
74.0, -10195.994140625, 19825.705078125, -13234.5341796875, 134762.46875, -187500.015625, -137308.265625, -187500.015625, -187500.015625, -0.1120000034570694, -0.6700000166893005, 0.7360000610351562, 192.0, 0.0, 0.0, 0.0, 0.0, 0.0, 0.0, 0.0, 0.0, 0.0, 1.6137595302430232E9, 2021-02-19 16:32:10.243
103.0, -10206.833984375, 19866.05078125, -13186.8359375, 134837.546875, -187500.015625, -138743.671875, -187500.015625, -187500.015625, -0.1120000034570694, -0.6700000166893005, 0.7360000610351562, 192.0, 0.0, 0.0, 0.0, 0.0, 0.0, 0.0, 0.0, 0.0, 0.0, 1.613759530293007E9, 2021-02-19 16:32:10.293
119.0, -10378.6748046875, 19986.68359375, -13079.033203125, 134956.96875, -187500.015625, -139760.5625, -187500.015625, -187500.015625, -0.1120000034570694, -0.6700000166893005, 0.7360000610351562, 192.0, 0.0, 0.0, 0.0, 0.0, 0.0, 0.0, 0.0, 0.0, 0.0, 1.6137595302979472E9, 2021-02-19 16:32:10.297
91.0, -10116.82421875, 19734.623046875, -13316.900390625, 134694.265625, -187500.015625, -137372.296875, -187500.015625, -187500.015625, -0.1120000034570694, -0.6700000166893005, 0.7360000610351562, 192.0, 0.0, 0.0, 0.0, 0.0, 0.0, 0.0, 0.0, 0.0, 0.0, 1.613759530301182E9, 2021-02-19 16:32:10.301
101.0, -10380.3955078125, 19912.564453125, -13145.1494140625, 134863.453125, -187500.015625, -137978.46875, -187500.015625, -187500.015625, -0.1120000034570694, -0.6700000166893005, 0.7360000610351562, 192.0, 0.0, 0.0, 0.0, 0.0, 0.0, 0.0, 0.0, 0.0, 0.0, 1.6137595303050096E9, 2021-02-19 16:32:10.305
117.0, -10154.6650390625, 19763.3671875, -13297.208984375, 134724.46875, -187500.015625, -137441.125, -187500.015625, -187500.015625, -0.1120000034570694, -0.6700000166893005, 0.7360000610351562, 192.0, 0.0, 0.0, 0.0, 0.0, 0.0, 0.0, 0.0, 0.0, 0.0, 1.6137595303080978E9, 2021-02-19 16:32:10.308
89.0, -10449.5068359375, 20027.85546875, -13036.0732421875, 134967.71875, -187500.015625, -138363.125, -187500.015625, -187500.015625, -0.1120000034570694, -0.6700000166893005, 0.7360000610351562, 192.0, 0.0, 0.0, 0.0, 0.0, 0.0, 0.0, 0.0, 0.0, 0.0, 1.61375953031104E9, 2021-02-19 16:32:10.311
108.0, -10058.2177734375, 19759.634765625, -13291.1064453125, 134730.90625, -187500.015625, -137459.25, -187500.015625, -187500.015625, -0.1120000034570694, -0.6700000166893005, 0.7360000610351562, 192.0, 0.0, 0.0, 0.0, 0.0, 0.0, 0.0, 0.0, 0.0, 0.0, 1.6137595303151188E9, 2021-02-19 16:32:10.315
113.0, -10252.96875, 19745.888671875, -13308.8759765625, 134709.0625, -187500.015625, -137454.53125, -187500.015625, -187500.015625, -0.1120000034570694, -0.6700000166893005, 0.7360000610351562, 192.0, 0.0, 0.0, 0.0, 0.0, 0.0, 0.0, 0.0, 0.0, 0.0, 1.6137595303179717E9, 2021-02-19 16:32:10.317
94.0, -10393.560546875, 20003.40234375, -13057.44140625, 134964.59375, -187500.015625, -139123.5625, -187500.015625, -187500.015625, -0.1120000034570694, -0.6700000166893005, 0.7360000610351562, 192.0, 0.0, 0.0, 0.0, 0.0, 0.0, 0.0, 0.0, 0.0, 0.0, 1.613759530329995E9, 2021-02-19 16:32:10.329
111.0, -10279.5, 19907.0, -13147.9658203125, 134882.78125, -187500.015625, -139380.25, -187500.015625, -187500.015625, -0.1120000034570694, -0.6700000166893005, 0.7360000610351562, 192.0, 0.0, 0.0, 0.0, 0.0, 0.0, 0.0, 0.0, 0.0, 0.0, 1.6137595303480957E9, 2021-02-19 16:32:10.348
125.0, -10059.4912109375, 19701.51953125, -13357.2451171875, 134681.296875, -187500.015625, -137551.9375, -187500.015625, -187500.015625, -0.1120000034570694, -0.6700000166893005, 0.7360000610351562, 192.0, 0.0, 0.0, 0.0, 0.0, 0.0, 0.0, 0.0, 0.0, 0.0, 1.6137595303549752E9, 2021-02-19 16:32:10.354
109.0, -10273.9345703125, 19801.611328125, -13254.4052734375, 134760.03125, -187500.015625, -137589.375, -187500.015625, -187500.015625, -0.1120000034570694, -0.6700000166893005, 0.7360000610351562, 192.0, 0.0, 0.0, 0.0, 0.0, 0.0, 0.0, 0.0, 0.0, 0.0, 1.6137595303579953E9, 2021-02-19 16:32:10.357
120.0, -10126.546875, 19775.458984375, -13285.4736328125, 134755.796875, -187500.015625, -138537.359375, -187500.015625, -187500.015625, -0.1120000034570694, -0.6700000166893005, 0.7360000610351562, 192.0, 0.0, 0.0, 0.0, 0.0, 0.0, 0.0, 0.0, 0.0, 0.0, 1.6137595303671665E9, 2021-02-19 16:32:10.367
129.0, -10019.99609375, 19749.017578125, -13312.0947265625, 134735.5, -187500.015625, -137746.953125, -187500.015625, -187500.015625, -0.1120000034570694, -0.6700000166893005, 0.7360000610351562, 192.0, 0.0, 0.0, 0.0, 0.0, 0.0, 0.0, 0.0, 0.0, 0.0, 1.6137595303880217E9, 2021-02-19 16:32:10.388
122.0, -10440.1865234375, 19941.197265625, -13125.2568359375, 134903.40625, -187500.015625, -138552.296875, -187500.015625, -187500.015625, -0.1120000034570694, -0.6700000166893005, 0.7360000610351562, 192.0, 0.0, 0.0, 0.0, 0.0, 0.0, 0.0, 0.0, 0.0, 0.0, 1.6137595303910494E9, 2021-02-19 16:32:10.391
123.0, -10416.4267578125, 20062.611328125, -13001.96484375, 135035.90625, -187500.015625, -139825.375, -187500.015625, -187500.015625, -0.1120000034570694, -0.6700000166893005, 0.7360000610351562, 192.0, 0.0, 0.0, 0.0, 0.0, 0.0, 0.0, 0.0, 0.0, 0.0, 1.613759530394078E9, 2021-02-19 16:32:10.394
156.0, -10481.7607421875, 20012.87890625, -13051.2275390625, 135010.40625, -187500.015625, -139558.71875, -187500.015625, -187500.015625, -0.1120000034570694, -0.6700000166893005, 0.7360000610351562, 192.0, 0.0, 0.0, 0.0, 0.0, 0.0, 0.0, 0.0, 0.0, 0.0, 1.6137595303981607E9, 2021-02-19 16:32:10.398
127.0, -10428.474609375, 20060.01953125, -13003.1943359375, 135036.5, -187500.015625, -139812.65625, -187500.015625, -187500.015625, -0.1120000034570694, -0.6700000166893005, 0.7360000610351562, 192.0, 0.0, 0.0, 0.0, 0.0, 0.0, 0.0, 0.0, 0.0, 0.0, 1.6137595304160855E9, 2021-02-19 16:32:10.416
154.0, -10052.96484375, 19704.26953125, -13352.9765625, 134712.171875, -187500.015625, -137708.796875, -187500.015625, -187500.015625, -0.1120000034570694, -0.6700000166893005, 0.7360000610351562, 192.0, 0.0, 0.0, 0.0, 0.0, 0.0, 0.0, 0.0, 0.0, 0.0, 1.613759530428134E9, 2021-02-19 16:32:10.428
152.0, -10431.0224609375, 20034.068359375, -13034.5087890625, 135035.40625, -187500.015625, -139846.28125, -187500.015625, -187500.015625, -0.1120000034570694, -0.6700000166893005, 0.7360000610351562, 192.0, 0.0, 0.0, 0.0, 0.0, 0.0, 0.0, 0.0, 0.0, 0.0, 1.6137595304330885E9, 2021-02-19 16:32:10.433
132.0, -10237.634765625, 19894.818359375, -13173.08984375, 134884.375, -187500.015625, -139493.921875, -187500.015625, -187500.015625, -0.1120000034570694, -0.6700000166893005, 0.7360000610351562, 192.0, 0.0, 0.0, 0.0, 0.0, 0.0, 0.0, 0.0, 0.0, 0.0, 1.6137595304531047E9, 2021-02-19 16:32:10.453
133.0, -10081.2177734375, 19700.46875, -13363.2138671875, 134692.53125, -187500.015625, -137853.890625, -187500.015625, -187500.015625, -0.1120000034570694, -0.6700000166893005, 0.7360000610351562, 192.0, 0.0, 0.0, 0.0, 0.0, 0.0, 0.0, 0.0, 0.0, 0.0, 1.6137595304571366E9, 2021-02-19 16:32:10.457
150.0, -10067.6943359375, 19703.576171875, -13355.904296875, 134702.96875, -187500.015625, -137638.59375, -187500.015625, -187500.015625, -0.1120000034570694, -0.6700000166893005, 0.7360000610351562, 192.0, 0.0, 0.0, 0.0, 0.0, 0.0, 0.0, 0.0, 0.0, 0.0, 1.6137595304602935E9, 2021-02-19 16:32:10.460
142.0, -10162.7119140625, 19690.634765625, -13372.0869140625, 134684.1875, -187500.015625, -137578.21875, -187500.015625, -187500.015625, -0.1120000034570694, -0.6700000166893005, 0.7360000610351562, 192.0, 0.0, 0.0, 0.0, 0.0, 0.0, 0.0, 0.0, 0.0, 0.0, 1.613759530506441E9, 2021-02-19 16:32:10.506
148.0, -10401.40625, 20039.478515625, -13022.5732421875, 135036.296875, -187500.015625, -139932.5625, -187500.015625, -187500.015625, -0.1120000034570694, -0.6700000166893005, 0.7360000610351562, 192.0, 0.0, 0.0, 0.0, 0.0, 0.0, 0.0, 0.0, 0.0, 0.0, 1.6137595305172467E9, 2021-02-19 16:32:10.517
137.0, -10085.419921875, 19685.806640625, -13372.556640625, 134682.0625, -187500.015625, -138198.328125, -187500.015625, -187500.015625, -0.1120000034570694, -0.6700000166893005, 0.7360000610351562, 192.0, 0.0, 0.0, 0.0, 0.0, 0.0, 0.0, 0.0, 0.0, 0.0, 1.6137595305201993E9, 2021-02-19 16:32:10.520
140.0, -10367.07421875, 19947.03125, -13116.1591796875, 134935.703125, -187500.015625, -139881.640625, -187500.015625, -187500.015625, -0.1120000034570694, -0.6700000166893005, 0.7360000610351562, 192.0, 0.0, 0.0, 0.0, 0.0, 0.0, 0.0, 0.0, 0.0, 0.0, 1.6137595305243564E9, 2021-02-19 16:32:10.524
146.0, -10087.6552734375, 19741.462890625, -13317.75, 134737.8125, -187500.015625, -137566.421875, -187500.015625, -187500.015625, -0.1120000034570694, -0.6700000166893005, 0.7360000610351562, 192.0, 0.0, 0.0, 0.0, 0.0, 0.0, 0.0, 0.0, 0.0, 0.0, 1.613759530527279E9, 2021-02-19 16:32:10.527
157.0, -10238.8193359375, 19899.19921875, -13159.7900390625, 134906.4375, -187500.015625, -139612.046875, -187500.015625, -187500.015625, -0.1120000034570694, -0.6700000166893005, 0.7360000610351562, 192.0, 0.0, 0.0, 0.0, 0.0, 0.0, 0.0, 0.0, 0.0, 0.0, 1.6137595305312548E9, 2021-02-19 16:32:10.531
158.0, -10054.7529296875, 19708.158203125, -13346.3603515625, 134717.40625, -187500.015625, -138014.265625, -187500.015625, -187500.015625, -0.1120000034570694, -0.6700000166893005, 0.7360000610351562, 192.0, 0.0, 0.0, 0.0, 0.0, 0.0, 0.0, 0.0, 0.0, 0.0, 1.613759530535233E9, 2021-02-19 16:32:10.535
159.0, -10236.4052734375, 19775.50390625, -13284.53515625, 134773.546875, -187500.015625, -137836.765625, -187500.015625, -187500.015625, -0.1120000034570694, -0.6700000166893005, 0.7360000610351562, 192.0, 0.0, 0.0, 0.0, 0.0, 0.0, 0.0, 0.0, 0.0, 0.0, 1.6137595305383403E9, 2021-02-19 16:32:10.538
166.0, -10103.189453125, 19760.796875, -13292.783203125, 134783.65625, -187500.015625, -138545.859375, -187500.015625, -187500.015625, -0.1120000034570694, -0.6700000166893005, 0.7360000610351562, 192.0, 0.0, 0.0, 0.0, 0.0, 0.0, 0.0, 0.0, 0.0, 0.0, 1.6137595305423756E9, 2021-02-19 16:32:10.542
161.0, -10309.541015625, 19951.63671875, -13110.52734375, 134962.578125, -187500.015625, -139795.53125, -187500.015625, -187500.015625, -0.1120000034570694, -0.6700000166893005, 0.7360000610351562, 192.0, 0.0, 0.0, 0.0, 0.0, 0.0, 0.0, 0.0, 0.0, 0.0, 1.6137595305461855E9, 2021-02-19 16:32:10.546
169.0, -10397.6064453125, 19987.421875, -13071.76953125, 135001.015625, -187500.015625, -139906.25, -187500.015625, -187500.015625, -0.1120000034570694, -0.6700000166893005, 0.7360000610351562, 192.0, 0.0, 0.0, 0.0, 0.0, 0.0, 0.0, 0.0, 0.0, 0.0, 1.6137595305492408E9, 2021-02-19 16:32:10.549
163.0, -10164.3212890625, 19764.439453125, -13296.0908203125, 134768.1875, -187500.015625, -137695.90625, -187500.015625, -187500.015625, -0.1120000034570694, -0.6700000166893005, 0.7360000610351562, 192.0, 0.0, 0.0, 0.0, 0.0, 0.0, 0.0, 0.0, 0.0, 0.0, 1.6137595305532467E9, 2021-02-19 16:32:10.553
210.0, -10451.7646484375, 19960.3984375, -13105.7880859375, 134964.96875, -187500.015625, -138915.53125, -187500.015625, -187500.015625, -0.1120000034570694, -0.6700000166893005, 0.7360000610351562, 192.0, 0.0, 0.0, 0.0, 0.0, 0.0, 0.0, 0.0, 0.0, 0.0, 1.613759530556336E9, 2021-02-19 16:32:10.556
167.0, -10119.3271484375, 19716.5625, -13336.9951171875, 134728.0625, -187500.015625, -137578.71875, -187500.015625, -187500.015625, -0.1120000034570694, -0.6700000166893005, 0.7360000610351562, 192.0, 0.0, 0.0, 0.0, 0.0, 0.0, 0.0, 0.0, 0.0, 0.0, 1.6137595305592644E9, 2021-02-19 16:32:10.559
170.0, -10142.23828125, 19800.494140625, -13252.5048828125, 134822.453125, -187500.015625, -138831.6875, -187500.015625, -187500.015625, -0.1120000034570694, -0.6700000166893005, 0.7360000610351562, 192.0, 0.0, 0.0, 0.0, 0.0, 0.0, 0.0, 0.0, 0.0, 0.0, 1.6137595305763848E9, 2021-02-19 16:32:10.576
177.0, -10484.0185546875, 19960.12890625, -13104.3583984375, 134977.734375, -187500.015625, -139614.875, -187500.015625, -187500.015625, -0.1120000034570694, -0.6700000166893005, 0.7360000610351562, 192.0, 0.0, 0.0, 0.0, 0.0, 0.0, 0.0, 0.0, 0.0, 0.0, 1.6137595305802515E9, 2021-02-19 16:32:10.580
187.0, -10063.42578125, 19771.2578125, -13285.3623046875, 134800.484375, -187500.015625, -138189.234375, -187500.015625, -187500.015625, -0.1120000034570694, -0.6700000166893005, 0.7360000610351562, 192.0, 0.0, 0.0, 0.0, 0.0, 0.0, 0.0, 0.0, 0.0, 0.0, 1.61375953058328E9, 2021-02-19 16:32:10.583
175.0, -10038.32421875, 19663.34375, -13393.3662109375, 134689.34375, -187500.015625, -137616.578125, -187500.015625, -187500.015625, -0.1120000034570694, -0.6720000505447388, 0.7420000433921814, 192.0, 252.0, 128.0, 235.0, 0.0, 23.0, 48.0, 0.0, 0.0, 0.0, 1.6137595305873377E9, 2021-02-19 16:32:10.587
208.0, -10031.73046875, 19759.56640625, -13302.1259765625, 134781.78125, -187500.015625, -137832.40625, -187500.015625, -187500.015625, -0.1120000034570694, -0.6720000505447388, 0.7420000433921814, 192.0, 0.0, 0.0, 0.0, 0.0, 0.0, 0.0, 0.0, 0.0, 0.0, 1.6137595305952704E9, 2021-02-19 16:32:10.595
206.0, -10449.7080078125, 20004.54296875, -13066.8515625, 135010.40625, -187500.015625, -139220.203125, -187500.015625, -187500.015625, -0.1120000034570694, -0.6720000505447388, 0.7420000433921814, 192.0, 0.0, 0.0, 0.0, 0.0, 0.0, 0.0, 0.0, 0.0, 0.0, 1.6137595305982723E9, 2021-02-19 16:32:10.598
182.0, -10240.853515625, 19921.4609375, -13143.5625, 134948.71875, -187500.015625, -139543.984375, -187500.015625, -187500.015625, -0.1120000034570694, -0.6720000505447388, 0.7420000433921814, 192.0, 0.0, 0.0, 0.0, 0.0, 0.0, 0.0, 0.0, 0.0, 0.0, 1.613759530601435E9, 2021-02-19 16:32:10.601
197.0, -10373.4892578125, 19859.994140625, -13205.3876953125, 134867.5, -187500.015625, -138223.234375, -187500.015625, -187500.015625, -0.1120000034570694, -0.6720000505447388, 0.7420000433921814, 192.0, 0.0, 0.0, 0.0, 0.0, 0.0, 0.0, 0.0, 0.0, 0.0, 1.613759530605268E9, 2021-02-19 16:32:10.605
194.0, -10384.3515625, 19964.755859375, -13101.7431640625, 134988.015625, -187500.015625, -139739.171875, -187500.015625, -187500.015625, -0.1120000034570694, -0.6720000505447388, 0.7420000433921814, 192.0, 0.0, 0.0, 0.0, 0.0, 0.0, 0.0, 0.0, 0.0, 0.0, 1.6137595306224236E9, 2021-02-19 16:32:10.622
213.0, -10124.6025390625, 19690.322265625, -13368.376953125, 134696.71875, -187500.015625, -137230.15625, -187500.015625, -187500.015625, -0.1120000034570694, -0.6720000505447388, 0.7420000433921814, 192.0, 0.0, 0.0, 0.0, 0.0, 0.0, 0.0, 0.0, 0.0, 0.0, 1.6137595306274076E9, 2021-02-19 16:32:10.627
192.0, -10067.9404296875, 19756.03515625, -13304.80859375, 134775.9375, -187500.015625, -137414.59375, -187500.015625, -187500.015625, -0.1120000034570694, -0.6720000505447388, 0.7420000433921814, 192.0, 0.0, 0.0, 0.0, 0.0, 0.0, 0.0, 0.0, 0.0, 0.0, 1.613759530634384E9, 2021-02-19 16:32:10.634
202.0, -10446.6904296875, 20058.74609375, -13010.5927734375, 135075.59375, -187500.015625, -139374.453125, -187500.015625, -187500.015625, -0.1120000034570694, -0.6720000505447388, 0.7420000433921814, 192.0, 0.0, 0.0, 0.0, 0.0, 0.0, 0.0, 0.0, 0.0, 0.0, 1.613759530638353E9, 2021-02-19 16:32:10.638
199.0, -10203.548828125, 19852.169921875, -13210.2607421875, 134876.40625, -187500.015625, -138923.21875, -187500.015625, -187500.015625, -0.1120000034570694, -0.6720000505447388, 0.7420000433921814, 192.0, 0.0, 0.0, 0.0, 0.0, 0.0, 0.0, 0.0, 0.0, 0.0, 1.6137595306573377E9, 2021-02-19 16:32:10.657
200.0, -10055.4013671875, 19715.333984375, -13346.337890625, 134738.234375, -187500.015625, -137415.234375, -187500.015625, -187500.015625, -0.1120000034570694, -0.6720000505447388, 0.7420000433921814, 192.0, 0.0, 0.0, 0.0, 0.0, 0.0, 0.0, 0.0, 0.0, 0.0, 1.6137595306604064E9, 2021-02-19 16:32:10.660
211.0, -10314.0107421875, 19994.9765625, -13067.208984375, 135011.03125, -187500.015625, -139521.109375, -187500.015625, -187500.015625, -0.1120000034570694, -0.6720000505447388, 0.7420000433921814, 192.0, 0.0, 0.0, 0.0, 0.0, 0.0, 0.0, 0.0, 0.0, 0.0, 1.613759530665373E9, 2021-02-19 16:32:10.665
214.0, -10442.6455078125, 19953.759765625, -13111.689453125, 134954.9375, -187500.015625, -138577.875, -187500.015625, -187500.015625, -0.1080000028014183, -0.6700000166893005, 0.7400000095367432, 192.0, 252.0, 160.0, 235.0, 16.0, 23.0, 32.0, 0.0, 0.0, 0.0, 1.6137595306713552E9, 2021-02-19 16:32:10.671
215.0, -10370.76171875, 20006.822265625, -13055.8095703125, 135021.3125, -187500.015625, -139545.375, -187500.015625, -187500.015625, -0.1080000028014183, -0.6700000166893005, 0.7400000095367432, 192.0, 0.0, 0.0, 0.0, 0.0, 0.0, 0.0, 0.0, 0.0, 0.0, 1.6137595306783502E9, 2021-02-19 16:32:10.678
216.0, -10111.861328125, 19758.404296875, -13298.4384765625, 134780.5, -187500.015625, -138293.859375, -187500.015625, -187500.015625, -0.1080000028014183, -0.6700000166893005, 0.7400000095367432, 192.0, 0.0, 0.0, 0.0, 0.0, 0.0, 0.0, 0.0, 0.0, 0.0, 1.6137595306934347E9, 2021-02-19 16:32:10.693
217.0, -10095.634765625, 19674.697265625, -13382.681640625, 134691.25, -187500.015625, -137151.546875, -187500.015625, -187500.015625, -0.1080000028014183, -0.6700000166893005, 0.7400000095367432, 192.0, 0.0, 0.0, 0.0, 0.0, 0.0, 0.0, 0.0, 0.0, 0.0, 1.6137595306965098E9, 2021-02-19 16:32:10.696
218.0, -10405.0048828125, 19906.865234375, -13155.8115234375, 134914.984375, -187500.015625, -138229.796875, -187500.015625, -187500.015625, -0.1080000028014183, -0.6700000166893005, 0.7400000095367432, 192.0, 0.0, 0.0, 0.0, 0.0, 0.0, 0.0, 0.0, 0.0, 0.0, 1.6137595306994693E9, 2021-02-19 16:32:10.699
219.0, -10416.76171875, 20004.9453125, -13058.291015625, 135019.03125, -187500.015625, -139484.71875, -187500.015625, -187500.015625, -0.1080000028014183, -0.6700000166893005, 0.7400000095367432, 192.0, 0.0, 0.0, 0.0, 0.0, 0.0, 0.0, 0.0, 0.0, 0.0, 1.6137595307054095E9, 2021-02-19 16:32:10.705
220.0, -10138.9970703125, 19841.53125, -13217.3232421875, 134862.0, -187500.015625, -138586.53125, -187500.015625, -187500.015625, -0.1080000028014183, -0.6700000166893005, 0.7400000095367432, 192.0, 0.0, 0.0, 0.0, 0.0, 0.0, 0.0, 0.0, 0.0, 0.0, 1.6137595307084386E9, 2021-02-19 16:32:10.708
221.0, -10032.333984375, 19709.052734375, -13347.455078125, 134721.671875, -187500.015625, -137171.5625, -187500.015625, -187500.015625, -0.1080000028014183, -0.6700000166893005, 0.7400000095367432, 192.0, 0.0, 0.0, 0.0, 0.0, 0.0, 0.0, 0.0, 0.0, 0.0, 1.613759530714401E9, 2021-02-19 16:32:10.714
222.0, -10331.556640625, 19920.56640625, -13145.306640625, 134920.796875, -187500.015625, -137832.90625, -187500.015625, -187500.015625, -0.1080000028014183, -0.6700000166893005, 0.7400000095367432, 192.0, 0.0, 0.0, 0.0, 0.0, 0.0, 0.0, 0.0, 0.0, 0.0, 1.6137595307185144E9, 2021-02-19 16:32:10.718
223.0, -10415.599609375, 20044.283203125, -13021.388671875, 135051.453125, -187500.015625, -139306.265625, -187500.015625, -187500.015625, -0.1080000028014183, -0.6700000166893005, 0.7400000095367432, 192.0, 0.0, 0.0, 0.0, 0.0, 0.0, 0.0, 0.0, 0.0, 0.0, 1.6137595307215884E9, 2021-02-19 16:32:10.721
224.0, -10186.181640625, 19868.3984375, -13191.57421875, 134883.765625, -187500.015625, -138697.234375, -187500.015625, -187500.015625, -0.12200000882148743, -0.6680000424385071, 0.7400000095367432, 192.0, 252.0, 48.0, 235.0, 32.0, 23.0, 32.0, 0.0, 0.0, 0.0, 1.6137595307244527E9, 2021-02-19 16:32:10.724
225.0, -10062.8447265625, 19672.75390625, -13384.6044921875, 134686.53125, -187500.015625, -137091.5625, -187500.015625, -187500.015625, -0.12200000882148743, -0.6680000424385071, 0.7400000095367432, 192.0, 0.0, 0.0, 0.0, 0.0, 0.0, 0.0, 0.0, 0.0, 0.0, 1.6137595307305276E9, 2021-02-19 16:32:10.730
226.0, -10261.5068359375, 19829.953125, -13232.8359375, 134834.40625, -187500.015625, -137542.96875, -187500.015625, -187500.015625, -0.12200000882148743, -0.6680000424385071, 0.7400000095367432, 192.0, 0.0, 0.0, 0.0, 0.0, 0.0, 0.0, 0.0, 0.0, 0.0, 1.613759530734575E9, 2021-02-19 16:32:10.734
232.0, -10268.591796875, 19956.5078125, -13096.9375, 134963.71875, -187500.015625, -139167.75, -187500.015625, -187500.015625, -0.12200000882148743, -0.6680000424385071, 0.7400000095367432, 192.0, 0.0, 0.0, 0.0, 0.0, 0.0, 0.0, 0.0, 0.0, 0.0, 1.613759530737442E9, 2021-02-19 16:32:10.737
228.0, -10227.755859375, 19900.361328125, -13161.869140625, 134915.421875, -187500.015625, -138952.28125, -187500.015625, -187500.015625, -0.12200000882148743, -0.6680000424385071, 0.7400000095367432, 192.0, 0.0, 0.0, 0.0, 0.0, 0.0, 0.0, 0.0, 0.0, 0.0, 1.613759530741558E9, 2021-02-19 16:32:10.741
248.0, -10499.75390625, 20011.515625, -13045.751953125, 135002.359375, -187500.015625, -138978.625, -187500.015625, -187500.015625, -0.12200000882148743, -0.6680000424385071, 0.7400000095367432, 192.0, 0.0, 0.0, 0.0, 0.0, 0.0, 0.0, 0.0, 0.0, 0.0, 1.6137595307445917E9, 2021-02-19 16:32:10.744
230.0, -10206.87890625, 19841.419921875, -13216.4521484375, 134840.53125, -187500.015625, -137296.453125, -187500.015625, -187500.015625, -0.12200000882148743, -0.6680000424385071, 0.7400000095367432, 192.0, 0.0, 0.0, 0.0, 0.0, 0.0, 0.0, 0.0, 0.0, 0.0, 1.6137595307474897E9, 2021-02-19 16:32:10.747
233.0, -10037.6982421875, 19770.33984375, -13278.03125, 134782.15625, -187500.015625, -137646.28125, -187500.015625, -187500.015625, -0.12200000882148743, -0.6680000424385071, 0.7400000095367432, 192.0, 0.0, 0.0, 0.0, 0.0, 0.0, 0.0, 0.0, 0.0, 0.0, 1.6137595307517436E9, 2021-02-19 16:32:10.751
238.0, -10113.068359375, 19712.0703125, -13340.8837890625, 134711.5625, -187500.015625, -136988.234375, -187500.015625, -187500.015625, -0.12200000882148743, -0.6680000424385071, 0.7400000095367432, 192.0, 0.0, 0.0, 0.0, 0.0, 0.0, 0.0, 0.0, 0.0, 0.0, 1.6137595307544956E9, 2021-02-19 16:32:10.754
246.0, -10066.0185546875, 19663.052734375, -13385.8330078125, 134666.109375, -187500.015625, -136925.90625, -187500.015625, -187500.015625, -0.12200000882148743, -0.6680000424385071, 0.7400000095367432, 192.0, 0.0, 0.0, 0.0, 0.0, 0.0, 0.0, 0.0, 0.0, 0.0, 1.613759530757465E9, 2021-02-19 16:32:10.757
242.0, -10073.0810546875, 19658.40234375, -13390.1025390625, 134661.40625, -187500.015625, -136936.765625, -187500.015625, -187500.015625, -0.12200000882148743, -0.6680000424385071, 0.7400000095367432, 192.0, 0.0, 0.0, 0.0, 0.0, 0.0, 0.0, 0.0, 0.0, 0.0, 1.6137595307614684E9, 2021-02-19 16:32:10.761
239.0, -10419.1982421875, 19949.333984375, -13111.197265625, 134938.6875, -187500.015625, -138265.40625, -187500.015625, -187500.015625, -0.12200000882148743, -0.6680000424385071, 0.7400000095367432, 192.0, 0.0, 0.0, 0.0, 0.0, 0.0, 0.0, 0.0, 0.0, 0.0, 1.613759530764475E9, 2021-02-19 16:32:10.764
240.0, -10365.77734375, 20010.8671875, -13044.611328125, 135010.28125, -187500.015625, -139315.765625, -187500.015625, -187500.015625, -0.12200000882148743, -0.6680000424385071, 0.7400000095367432, 192.0, 0.0, 0.0, 0.0, 0.0, 0.0, 0.0, 0.0, 0.0, 0.0, 1.6137595307685783E9, 2021-02-19 16:32:10.768
2.0, -10082.9384765625, 19733.28125, -13320.3876953125, 134727.921875, -187500.015625, -137521.375, -187500.015625, -187500.015625, -0.12200000882148743, -0.6680000424385071, 0.7400000095367432, 192.0, 0.0, 0.0, 0.0, 0.0, 0.0, 0.0, 0.0, 0.0, 0.0, 1.613759530771488E9, 2021-02-19 16:32:10.771
244.0, -10416.314453125, 19973.384765625, -13079.369140625, 134972.34375, -187500.015625, -139248.140625, -187500.015625, -187500.015625, -0.1120000034570694, -0.6720000505447388, 0.7420000433921814, 192.0, 252.0, 128.0, 235.0, 0.0, 23.0, 48.0, 0.0, 0.0, 0.0, 1.6137595307745943E9, 2021-02-19 16:32:10.774
249.0, -10187.1650390625, 19894.236328125, -13159.3427734375, 134894.859375, -187500.015625, -138738.65625, -187500.015625, -187500.015625, -0.1120000034570694, -0.6720000505447388, 0.7420000433921814, 192.0, 0.0, 0.0, 0.0, 0.0, 0.0, 0.0, 0.0, 0.0, 0.0, 1.6137595307775369E9, 2021-02-19 16:32:10.777
250.0, -10018.7890625, 19700.580078125, -13352.9541015625, 134696.703125, -187500.015625, -137128.265625, -187500.015625, -187500.015625, -0.1120000034570694, -0.6720000505447388, 0.7420000433921814, 192.0, 0.0, 0.0, 0.0, 0.0, 0.0, 0.0, 0.0, 0.0, 0.0, 1.6137595307815008E9, 2021-02-19 16:32:10.781
251.0, -10265.2841796875, 19794.01171875, -13264.2841796875, 134777.65625, -187500.015625, -137304.015625, -187500.015625, -187500.015625, -0.1120000034570694, -0.6720000505447388, 0.7420000433921814, 192.0, 0.0, 0.0, 0.0, 0.0, 0.0, 0.0, 0.0, 0.0, 0.0, 1.6137595307847776E9, 2021-02-19 16:32:10.784
252.0, -10479.48046875, 19957.447265625, -13103.84375, 134940.421875, -187500.015625, -138929.046875, -187500.015625, -187500.015625, -0.1120000034570694, -0.6720000505447388, 0.7420000433921814, 192.0, 0.0, 0.0, 0.0, 0.0, 0.0, 0.0, 0.0, 0.0, 0.0, 1.6137595307885215E9, 2021-02-19 16:32:10.788
255.0, -10241.4794921875, 19726.888671875, -13326.19921875, 134709.984375, -187500.015625, -137065.234375, -187500.015625, -187500.015625, -0.1120000034570694, -0.6720000505447388, 0.7420000433921814, 192.0, 0.0, 0.0, 0.0, 0.0, 0.0, 0.0, 0.0, 0.0, 0.0, 1.6137595307915208E9, 2021-02-19 16:32:10.791
3.0, -10156.9228515625, 19743.876953125, -13315.626953125, 134725.5625, -187500.015625, -136898.0, -187500.015625, -187500.015625, -0.1120000034570694, -0.6720000505447388, 0.7420000433921814, 192.0, 0.0, 0.0, 0.0, 0.0, 0.0, 0.0, 0.0, 0.0, 0.0, 1.6137595307946205E9, 2021-02-19 16:32:10.794
4.0, -10438.5546875, 19972.2890625, -13088.4658203125, 134945.359375, -187500.015625, -138348.484375, -187500.015625, -187500.015625, -0.1120000034570694, -0.6720000505447388, 0.7420000433921814, 192.0, 0.0, 0.0, 0.0, 0.0, 0.0, 0.0, 0.0, 0.0, 0.0, 1.6137595307985353E9, 2021-02-19 16:32:10.798
5.0, -10340.9443359375, 19981.20703125, -13073.802734375, 134964.34375, -187500.015625, -139134.78125, -187500.015625, -187500.015625, -0.1120000034570694, -0.6720000505447388, 0.7420000433921814, 192.0, 0.0, 0.0, 0.0, 0.0, 0.0, 0.0, 0.0, 0.0, 0.0, 1.613759530801747E9, 2021-02-19 16:32:10.801
6.0, -10083.4970703125, 19776.46484375, -13274.0078125, 134765.21875, -187500.015625, -137803.734375, -187500.015625, -187500.015625, -0.1120000034570694, -0.6720000505447388, 0.7420000433921814, 192.0, 0.0, 0.0, 0.0, 0.0, 0.0, 0.0, 0.0, 0.0, 0.0, 1.6137595308045483E9, 2021-02-19 16:32:10.804
7.0, -10091.052734375, 19740.703125, -13312.453125, 134716.109375, -187500.015625, -136832.765625, -187500.015625, -187500.015625, -0.11000000685453415, -0.6760000586509705, 0.7400000095367432, 192.0, 252.0, 144.0, 234.0, 224.0, 23.0, 32.0, 0.0, 0.0, 0.0, 1.6137595308085449E9, 2021-02-19 16:32:10.808
8.0, -10395.5947265625, 19927.115234375, -13130.5537109375, 134898.203125, -187500.015625, -138035.859375, -187500.015625, -187500.015625, -0.11000000685453415, -0.6760000586509705, 0.7400000095367432, 192.0, 0.0, 0.0, 0.0, 0.0, 0.0, 0.0, 0.0, 0.0, 0.0, 1.6137595308115597E9, 2021-02-19 16:32:10.811
9.0, -10390.07421875, 19965.740234375, -13089.3818359375, 134947.375, -187500.015625, -139137.734375, -187500.015625, -187500.015625, -0.11000000685453415, -0.6760000586509705, 0.7400000095367432, 192.0, 0.0, 0.0, 0.0, 0.0, 0.0, 0.0, 0.0, 0.0, 0.0, 1.613759530815572E9, 2021-02-19 16:32:10.815
10.0, -10132.0234375, 19805.0078125, -13248.2138671875, 134792.03125, -187500.015625, -138091.6875, -187500.015625, -187500.015625, -0.11000000685453415, -0.6760000586509705, 0.7400000095367432, 192.0, 0.0, 0.0, 0.0, 0.0, 0.0, 0.0, 0.0, 0.0, 0.0, 1.613759530818616E9, 2021-02-19 16:32:10.818
11.0, -10033.3623046875, 19761.82421875, -13292.6708984375, 134741.140625, -187500.015625, -136826.828125, -187500.015625, -187500.015625, -0.11000000685453415, -0.6760000586509705, 0.7400000095367432, 192.0, 0.0, 0.0, 0.0, 0.0, 0.0, 0.0, 0.0, 0.0, 0.0, 1.6137595308215516E9, 2021-02-19 16:32:10.821
12.0, -10342.978515625, 19890.5703125, -13170.474609375, 134860.546875, -187500.015625, -137585.53125, -187500.015625, -187500.015625, -0.11000000685453415, -0.6760000586509705, 0.7400000095367432, 192.0, 0.0, 0.0, 0.0, 0.0, 0.0, 0.0, 0.0, 0.0, 0.0, 1.6137595308245387E9, 2021-02-19 16:32:10.824
13.0, -10420.3603515625, 20010.912109375, -13049.796875, 134985.125, -187500.015625, -139006.515625, -187500.015625, -187500.015625, -0.11000000685453415, -0.6760000586509705, 0.7400000095367432, 192.0, 0.0, 0.0, 0.0, 0.0, 0.0, 0.0, 0.0, 0.0, 0.0, 1.6137595308285737E9, 2021-02-19 16:32:10.828
14.0, -10180.3701171875, 19825.86328125, -13231.2041015625, 134807.03125, -187500.015625, -138274.171875, -187500.015625, -187500.015625, -0.11000000685453415, -0.6760000586509705, 0.7400000095367432, 192.0, 0.0, 0.0, 0.0, 0.0, 0.0, 0.0, 0.0, 0.0, 0.0, 1.613759530831588E9, 2021-02-19 16:32:10.831
15.0, -10074.1318359375, 19668.126953125, -13387.7109375, 134643.90625, -187500.015625, -136764.671875, -187500.015625, -187500.015625, -0.11000000685453415, -0.6760000586509705, 0.7400000095367432, 192.0, 0.0, 0.0, 0.0, 0.0, 0.0, 0.0, 0.0, 0.0, 0.0, 1.6137595308356245E9, 2021-02-19 16:32:10.835
16.0, -10286.80859375, 19870.54296875, -13189.71875, 134834.390625, -187500.015625, -137449.71875, -187500.015625, -187500.015625, -0.11000000685453415, -0.6760000586509705, 0.7400000095367432, 192.0, 0.0, 0.0, 0.0, 0.0, 0.0, 0.0, 0.0, 0.0, 0.0, 1.613759530838572E9, 2021-02-19 16:32:10.838
17.0, -10418.259765625, 20024.5703125, -13034.888671875, 134996.6875, -187500.015625, -138960.125, -187500.015625, -187500.015625, -0.11800000816583633, -0.6700000166893005, 0.7380000352859497, 192.0, 252.0, 80.0, 235.0, 16.0, 23.0, 16.0, 0.0, 0.0, 0.0, 1.6137595308417368E9, 2021-02-19 16:32:10.841
18.0, -10202.9453125, 19914.599609375, -13139.919921875, 134897.78125, -187500.015625, -138624.78125, -187500.015625, -187500.015625, -0.11800000816583633, -0.6700000166893005, 0.7380000352859497, 192.0, 0.0, 0.0, 0.0, 0.0, 0.0, 0.0, 0.0, 0.0, 0.0, 1.6137595308456192E9, 2021-02-19 16:32:10.845
19.0, -10008.7529296875, 19742.84765625, -13308.2509765625, 134725.5625, -187500.015625, -137084.5, -187500.015625, -187500.015625, -0.11800000816583633, -0.6700000166893005, 0.7380000352859497, 192.0, 0.0, 0.0, 0.0, 0.0, 0.0, 0.0, 0.0, 0.0, 0.0, 1.6137595308486505E9, 2021-02-19 16:32:10.848
20.0, -10218.8369140625, 19812.96484375, -13242.603515625, 134779.921875, -187500.015625, -137163.734375, -187500.015625, -187500.015625, -0.11800000816583633, -0.6700000166893005, 0.7380000352859497, 192.0, 0.0, 0.0, 0.0, 0.0, 0.0, 0.0, 0.0, 0.0, 0.0, 1.6137595308518283E9, 2021-02-19 16:32:10.851
21.0, -10451.474609375, 19967.21484375, -13091.9970703125, 134931.78125, -187500.015625, -138746.484375, -187500.015625, -187500.015625, -0.11800000816583633, -0.6700000166893005, 0.7380000352859497, 192.0, 0.0, 0.0, 0.0, 0.0, 0.0, 0.0, 0.0, 0.0, 0.0, 1.61375953085561E9, 2021-02-19 16:32:10.855
22.0, -10261.08203125, 19924.43359375, -13131.42578125, 134898.890625, -187500.015625, -138845.59375, -187500.015625, -187500.015625, -0.11800000816583633, -0.6700000166893005, 0.7380000352859497, 192.0, 0.0, 0.0, 0.0, 0.0, 0.0, 0.0, 0.0, 0.0, 0.0, 1.6137595308585968E9, 2021-02-19 16:32:10.858
23.0, -10041.6552734375, 19721.3671875, -13332.390625, 134698.046875, -187500.015625, -137270.265625, -187500.015625, -187500.015625, -0.11800000816583633, -0.6700000166893005, 0.7380000352859497, 192.0, 0.0, 0.0, 0.0, 0.0, 0.0, 0.0, 0.0, 0.0, 0.0, 1.613759530861586E9, 2021-02-19 16:32:10.861
24.0, -10179.85546875, 19784.802734375, -13273.44921875, 134746.6875, -187500.015625, -136955.4375, -187500.015625, -187500.015625, -0.11800000816583633, -0.6700000166893005, 0.7380000352859497, 192.0, 0.0, 0.0, 0.0, 0.0, 0.0, 0.0, 0.0, 0.0, 0.0, 1.6137595308656435E9, 2021-02-19 16:32:10.865
25.0, -10447.6748046875, 19970.09765625, -13095.283203125, 134928.328125, -187500.015625, -138497.484375, -187500.015625, -187500.015625, -0.11800000816583633, -0.6700000166893005, 0.7380000352859497, 192.0, 0.0, 0.0, 0.0, 0.0, 0.0, 0.0, 0.0, 0.0, 0.0, 1.613759530868748E9, 2021-02-19 16:32:10.868
26.0, -10319.4873046875, 19915.716796875, -13146.982421875, 134882.796875, -187500.015625, -139010.671875, -187500.015625, -187500.015625, -0.11800000816583633, -0.6700000166893005, 0.7380000352859497, 192.0, 0.0, 0.0, 0.0, 0.0, 0.0, 0.0, 0.0, 0.0, 0.0, 1.6137595308716156E9, 2021-02-19 16:32:10.871
27.0, -10085.7099609375, 19706.728515625, -13348.8408203125, 134677.859375, -187500.015625, -137526.6875, -187500.015625, -187500.015625, -0.1080000028014183, -0.6740000247955322, 0.7460000514984131, 192.0, 252.0, 160.0, 234.0, 240.0, 23.0, 80.0, 0.0, 0.0, 0.0, 1.613759530875868E9, 2021-02-19 16:32:10.875
28.0, -10154.173828125, 19685.515625, -13371.953125, 134648.265625, -187500.015625, -136775.890625, -187500.015625, -187500.015625, -0.1080000028014183, -0.6740000247955322, 0.7460000514984131, 192.0, 0.0, 0.0, 0.0, 0.0, 0.0, 0.0, 0.0, 0.0, 0.0, 1.6137595308787403E9, 2021-02-19 16:32:10.878
29.0, -10468.7294921875, 19896.650390625, -13162.740234375, 134851.3125, -187500.015625, -138157.328125, -187500.015625, -187500.015625, -0.1080000028014183, -0.6740000247955322, 0.7460000514984131, 192.0, 0.0, 0.0, 0.0, 0.0, 0.0, 0.0, 0.0, 0.0, 0.0, 1.6137595308826344E9, 2021-02-19 16:32:10.882
30.0, -10388.6884765625, 19965.314453125, -13090.7900390625, 134928.828125, -187500.015625, -139070.0625, -187500.015625, -187500.015625, -0.1080000028014183, -0.6740000247955322, 0.7460000514984131, 192.0, 0.0, 0.0, 0.0, 0.0, 0.0, 0.0, 0.0, 0.0, 0.0, 1.6137595308858352E9, 2021-02-19 16:32:10.885
31.0, -10121.919921875, 19740.791015625, -13311.2900390625, 134713.78125, -187500.015625, -137792.390625, -187500.015625, -187500.015625, -0.1080000028014183, -0.6740000247955322, 0.7460000514984131, 192.0, 0.0, 0.0, 0.0, 0.0, 0.0, 0.0, 0.0, 0.0, 0.0, 1.6137595308886375E9, 2021-02-19 16:32:10.888
32.0, -10100.9990234375, 19701.787109375, -13349.6240234375, 134667.3125, -187500.015625, -136704.78125, -187500.015625, -187500.015625, -0.1080000028014183, -0.6740000247955322, 0.7460000514984131, 192.0, 0.0, 0.0, 0.0, 0.0, 0.0, 0.0, 0.0, 0.0, 0.0, 1.6137595308927603E9, 2021-02-19 16:32:10.892
33.0, -10402.255859375, 19884.759765625, -13171.48046875, 134837.25, -187500.015625, -137826.125, -187500.015625, -187500.015625, -0.1080000028014183, -0.6740000247955322, 0.7460000514984131, 192.0, 0.0, 0.0, 0.0, 0.0, 0.0, 0.0, 0.0, 0.0, 0.0, 1.613759530895732E9, 2021-02-19 16:32:10.895
34.0, -10391.1240234375, 20014.578125, -13039.9404296875, 134973.0625, -187500.015625, -139068.296875, -187500.015625, -187500.015625, -0.1080000028014183, -0.6740000247955322, 0.7460000514984131, 192.0, 0.0, 0.0, 0.0, 0.0, 0.0, 0.0, 0.0, 0.0, 0.0, 1.6137595308997195E9, 2021-02-19 16:32:10.899
35.0, -10141.65625, 19824.90234375, -13225.99609375, 134789.515625, -187500.015625, -137973.6875, -187500.015625, -187500.015625, -0.1080000028014183, -0.6740000247955322, 0.7460000514984131, 192.0, 0.0, 0.0, 0.0, 0.0, 0.0, 0.0, 0.0, 0.0, 0.0, 1.6137595309026809E9, 2021-02-19 16:32:10.902
36.0, -10049.43359375, 19710.013671875, -13340.90625, 134670.8125, -187500.015625, -136668.390625, -187500.015625, -187500.015625, -0.1080000028014183, -0.6740000247955322, 0.7460000514984131, 192.0, 0.0, 0.0, 0.0, 0.0, 0.0, 0.0, 0.0, 0.0, 0.0, 1.6137595309056933E9, 2021-02-19 16:32:10.905
37.0, -10349.4384765625, 19917.50390625, -13139.7626953125, 134866.125, -187500.015625, -137453.796875, -187500.015625, -187500.015625, -0.11400000751018524, -0.6680000424385071, 0.7460000514984131, 192.0, 252.0, 112.0, 235.0, 32.0, 23.0, 80.0, 0.0, 0.0, 0.0, 1.6137595309098306E9, 2021-02-19 16:32:10.909
38.0, -10427.46875, 20064.421875, -12994.7451171875, 135019.1875, -187500.015625, -138886.671875, -187500.015625, -187500.015625, -0.11400000751018524, -0.6680000424385071, 0.7460000514984131, 192.0, 0.0, 0.0, 0.0, 0.0, 0.0, 0.0, 0.0, 0.0, 0.0, 1.6137595309127614E9, 2021-02-19 16:32:10.912
39.0, -10132.783203125, 19856.73046875, -13197.2294921875, 134819.296875, -187500.015625, -138445.5, -187500.015625, -187500.015625, -0.11400000751018524, -0.6680000424385071, 0.7460000514984131, 192.0, 0.0, 0.0, 0.0, 0.0, 0.0, 0.0, 0.0, 0.0, 0.0, 1.613759530915776E9, 2021-02-19 16:32:10.915
40.0, -10018.2978515625, 19674.4296875, -13378.345703125, 134630.3125, -187500.015625, -136879.125, -187500.015625, -187500.015625, -0.11400000751018524, -0.6680000424385071, 0.7460000514984131, 192.0, 0.0, 0.0, 0.0, 0.0, 0.0, 0.0, 0.0, 0.0, 0.0, 1.6137595309196894E9, 2021-02-19 16:32:10.919
41.0, -10304.310546875, 19817.01171875, -13239.8544921875, 134760.578125, -187500.015625, -137261.296875, -187500.015625, -187500.015625, -0.11400000751018524, -0.6680000424385071, 0.7460000514984131, 192.0, 0.0, 0.0, 0.0, 0.0, 0.0, 0.0, 0.0, 0.0, 0.0, 1.6137595309226716E9, 2021-02-19 16:32:10.922
42.0, -10457.576171875, 19973.49609375, -13084.9345703125, 134927.46875, -187500.015625, -138837.859375, -187500.015625, -187500.015625, -0.11400000751018524, -0.6680000424385071, 0.7460000514984131, 192.0, 0.0, 0.0, 0.0, 0.0, 0.0, 0.0, 0.0, 0.0, 0.0, 1.6137595309257617E9, 2021-02-19 16:32:10.925
43.0, -10252.56640625, 19846.0234375, -13207.6005859375, 134805.59375, -187500.015625, -138610.34375, -187500.015625, -187500.015625, -0.11400000751018524, -0.6680000424385071, 0.7460000514984131, 192.0, 0.0, 0.0, 0.0, 0.0, 0.0, 0.0, 0.0, 0.0, 0.0, 1.613759530928757E9, 2021-02-19 16:32:10.928
44.0, -10063.5146484375, 19685.42578125, -13367.3037109375, 134646.234375, -187500.015625, -137024.171875, -187500.015625, -187500.015625, -0.11400000751018524, -0.6680000424385071, 0.7460000514984131, 192.0, 0.0, 0.0, 0.0, 0.0, 0.0, 0.0, 0.0, 0.0, 0.0, 1.613759530932756E9, 2021-02-19 16:32:10.932
45.0, -10241.099609375, 19802.125, -13256.7294921875, 134749.8125, -187500.015625, -137015.09375, -187500.015625, -187500.015625, -0.11400000751018524, -0.6680000424385071, 0.7460000514984131, 192.0, 0.0, 0.0, 0.0, 0.0, 0.0, 0.0, 0.0, 0.0, 0.0, 1.613759530935966E9, 2021-02-19 16:32:10.935
46.0, -10463.6337890625, 19986.951171875, -13074.138671875, 134930.921875, -187500.015625, -138597.65625, -187500.015625, -187500.015625, -0.11400000751018524, -0.6680000424385071, 0.7460000514984131, 192.0, 0.0, 0.0, 0.0, 0.0, 0.0, 0.0, 0.0, 0.0, 0.0, 1.6137595309397335E9, 2021-02-19 16:32:10.939
47.0, -10273.263671875, 19966.1875, -13090.1201171875, 134920.59375, -187500.015625, -138812.203125, -187500.015625, -187500.015625, -0.1080000028014183, -0.6640000343322754, 0.7460000514984131, 192.0, 252.0, 160.0, 235.0, 64.0, 23.0, 80.0, 0.0, 0.0, 0.0, 1.613759530942727E9, 2021-02-19 16:32:10.942
48.0, -10030.814453125, 19736.12109375, -13316.654296875, 134695.765625, -187500.015625, -137258.84375, -187500.015625, -187500.015625, -0.1080000028014183, -0.6640000343322754, 0.7460000514984131, 192.0, 0.0, 0.0, 0.0, 0.0, 0.0, 0.0, 0.0, 0.0, 0.0, 1.6137595309467285E9, 2021-02-19 16:32:10.946
49.0, -10158.7783203125, 19768.798828125, -13287.306640625, 134713.71875, -187500.015625, -136817.546875, -187500.015625, -187500.015625, -0.1080000028014183, -0.6640000343322754, 0.7460000514984131, 192.0, 0.0, 0.0, 0.0, 0.0, 0.0, 0.0, 0.0, 0.0, 0.0, 1.6137595309499352E9, 2021-02-19 16:32:10.949
50.0, -10432.810546875, 20013.68359375, -13046.8466796875, 134955.109375, -187500.015625, -138332.234375, -187500.015625, -187500.015625, -0.1080000028014183, -0.6640000343322754, 0.7460000514984131, 192.0, 0.0, 0.0, 0.0, 0.0, 0.0, 0.0, 0.0, 0.0, 0.0, 1.6137595309527428E9, 2021-02-19 16:32:10.952
51.0, -10300.0634765625, 19986.861328125, -13071.3671875, 134939.28125, -187500.015625, -138951.640625, -187500.015625, -187500.015625, -0.1080000028014183, -0.6640000343322754, 0.7460000514984131, 192.0, 0.0, 0.0, 0.0, 0.0, 0.0, 0.0, 0.0, 0.0, 0.0, 1.6137595309567268E9, 2021-02-19 16:32:10.956
52.0, -10067.6943359375, 19743.33984375, -13315.6708984375, 134697.4375, -187500.015625, -137544.828125, -187500.015625, -187500.015625, -0.1080000028014183, -0.6640000343322754, 0.7460000514984131, 192.0, 0.0, 0.0, 0.0, 0.0, 0.0, 0.0, 0.0, 0.0, 0.0, 1.6137595309598188E9, 2021-02-19 16:32:10.959
53.0, -10100.7978515625, 19757.845703125, -13304.5849609375, 134700.328125, -187500.015625, -136705.96875, -187500.015625, -187500.015625, -0.1080000028014183, -0.6640000343322754, 0.7460000514984131, 192.0, 0.0, 0.0, 0.0, 0.0, 0.0, 0.0, 0.0, 0.0, 0.0, 1.6137595309627616E9, 2021-02-19 16:32:10.962
54.0, -10402.568359375, 19942.26953125, -13126.0390625, 134876.25, -187500.015625, -138006.0625, -187500.015625, -187500.015625, -0.1080000028014183, -0.6640000343322754, 0.7460000514984131, 192.0, 0.0, 0.0, 0.0, 0.0, 0.0, 0.0, 0.0, 0.0, 0.0, 1.6137595309658284E9, 2021-02-19 16:32:10.965
55.0, -10355.25, 19981.83203125, -13080.6201171875, 134922.4375, -187500.015625, -139002.859375, -187500.015625, -187500.015625, -0.1080000028014183, -0.6640000343322754, 0.7460000514984131, 192.0, 0.0, 0.0, 0.0, 0.0, 0.0, 0.0, 0.0, 0.0, 0.0, 1.6137595309699552E9, 2021-02-19 16:32:10.969
56.0, -10092.3037109375, 19789.25, -13266.966796875, 134740.53125, -187500.015625, -137828.609375, -187500.015625, -187500.015625, -0.1080000028014183, -0.6640000343322754, 0.7460000514984131, 192.0, 0.0, 0.0, 0.0, 0.0, 0.0, 0.0, 0.0, 0.0, 0.0, 1.6137595309727516E9, 2021-02-19 16:32:10.972
57.0, -10047.1982421875, 19705.72265625, -13350.673828125, 134647.4375, -187500.015625, -136686.765625, -187500.015625, -187500.015625, -0.11000000685453415, -0.6640000343322754, 0.7400000095367432, 192.0, 252.0, 144.0, 235.0, 64.0, 23.0, 32.0, 0.0, 0.0, 0.0, 1.6137595309768803E9, 2021-02-19 16:32:10.976
58.0, -10382.6533203125, 19898.169921875, -13163.0986328125, 134825.671875, -187500.015625, -137603.640625, -187500.015625, -187500.015625, -0.11000000685453415, -0.6640000343322754, 0.7400000095367432, 192.0, 0.0, 0.0, 0.0, 0.0, 0.0, 0.0, 0.0, 0.0, 0.0, 1.6137595309798353E9, 2021-02-19 16:32:10.979
59.0, -10420.9638671875, 19975.3515625, -13086.2978515625, 134907.796875, -187500.015625, -138913.0, -187500.015625, -187500.015625, -0.11000000685453415, -0.6640000343322754, 0.7400000095367432, 192.0, 0.0, 0.0, 0.0, 0.0, 0.0, 0.0, 0.0, 0.0, 0.0, 1.6137595309828825E9, 2021-02-19 16:32:10.982
60.0, -10165.3271484375, 19823.359375, -13234.400390625, 134766.125, -187500.015625, -138044.375, -187500.015625, -187500.015625, -0.11000000685453415, -0.6640000343322754, 0.7400000095367432, 192.0, 0.0, 0.0, 0.0, 0.0, 0.0, 0.0, 0.0, 0.0, 0.0, 1.6137595309859304E9, 2021-02-19 16:32:10.985
61.0, -10070.779296875, 19694.412109375, -13361.3359375, 134630.140625, -187500.015625, -136583.4375, -187500.015625, -187500.015625, -0.11000000685453415, -0.6640000343322754, 0.7400000095367432, 192.0, 0.0, 0.0, 0.0, 0.0, 0.0, 0.0, 0.0, 0.0, 0.0, 1.6137595309887695E9, 2021-02-19 16:32:10.988
62.0, -10308.7578125, 19833.953125, -13225.9736328125, 134757.71875, -187500.015625, -137451.671875, -187500.015625, -187500.015625, -0.11000000685453415, -0.6640000343322754, 0.7400000095367432, 192.0, 0.0, 0.0, 0.0, 0.0, 0.0, 0.0, 0.0, 0.0, 0.0, 1.613759530993852E9, 2021-02-19 16:32:10.993
63.0, -10430.75390625, 19987.935546875, -13071.92578125, 134916.59375, -187500.015625, -138919.078125, -187500.015625, -187500.015625, -0.11000000685453415, -0.6640000343322754, 0.7400000095367432, 192.0, 0.0, 0.0, 0.0, 0.0, 0.0, 0.0, 0.0, 0.0, 0.0, 1.6137595309968433E9, 2021-02-19 16:32:10.996
64.0, -10199.4130859375, 19856.373046875, -13199.017578125, 134794.296875, -187500.015625, -138381.765625, -187500.015625, -187500.015625, -0.11000000685453415, -0.6640000343322754, 0.7400000095367432, 192.0, 0.0, 0.0, 0.0, 0.0, 0.0, 0.0, 0.0, 0.0, 0.0, 1.6137595310009184E9, 2021-02-19 16:32:11.000
65.0, -10033.7197265625, 19671.009765625, -13381.5419921875, 134603.90625, -187500.015625, -136840.53125, -187500.015625, -187500.015625, -0.11000000685453415, -0.6640000343322754, 0.7400000095367432, 192.0, 0.0, 0.0, 0.0, 0.0, 0.0, 0.0, 0.0, 0.0, 0.0, 1.6137595310038908E9, 2021-02-19 16:32:11.003
66.0, -10272.34765625, 19818.75390625, -13238.625, 134736.78125, -187500.015625, -137128.578125, -187500.015625, -187500.015625, -0.11000000685453415, -0.6640000343322754, 0.7400000095367432, 192.0, 0.0, 0.0, 0.0, 0.0, 0.0, 0.0, 0.0, 0.0, 0.0, 1.6137595310067935E9, 2021-02-19 16:32:11.006
67.0, -10454.0, 19988.78515625, -13071.568359375, 134911.6875, -187500.015625, -138732.46875, -187500.015625, -187500.015625, -0.11400000751018524, -0.6600000262260437, 0.7400000095367432, 192.0, 252.0, 112.0, 235.0, 96.0, 23.0, 32.0, 0.0, 0.0, 0.0, 1.6137595310100532E9, 2021-02-19 16:32:11.010
68.0, -10246.4189453125, 19895.30859375, -13158.4267578125, 134824.890625, -187500.015625, -138634.40625, -187500.015625, -187500.015625, -0.11400000751018524, -0.6600000262260437, 0.7400000095367432, 192.0, 0.0, 0.0, 0.0, 0.0, 0.0, 0.0, 0.0, 0.0, 0.0, 1.6137595310138335E9, 2021-02-19 16:32:11.013
69.0, -10048.29296875, 19712.046875, -13339.900390625, 134638.5, -187500.015625, -137047.015625, -187500.015625, -187500.015625, -0.11400000751018524, -0.6600000262260437, 0.7400000095367432, 192.0, 0.0, 0.0, 0.0, 0.0, 0.0, 0.0, 0.0, 0.0, 0.0, 1.6137595310169907E9, 2021-02-19 16:32:11.016
70.0, -10217.0712890625, 19792.1328125, -13265.7822265625, 134706.0, -187500.015625, -136908.921875, -187500.015625, -187500.015625, -0.11400000751018524, -0.6600000262260437, 0.7400000095367432, 192.0, 0.0, 0.0, 0.0, 0.0, 0.0, 0.0, 0.0, 0.0, 0.0, 1.613759531019826E9, 2021-02-19 16:32:11.019
71.0, -10436.900390625, 20055.482421875, -13006.5693359375, 134971.5625, -187500.015625, -138503.0, -187500.015625, -187500.015625, -0.11400000751018524, -0.6600000262260437, 0.7400000095367432, 192.0, 0.0, 0.0, 0.0, 0.0, 0.0, 0.0, 0.0, 0.0, 0.0, 1.613759531023805E9, 2021-02-19 16:32:11.023
72.0, -10250.15234375, 19964.443359375, -13093.115234375, 134892.546875, -187500.015625, -138832.203125, -187500.015625, -187500.015625, -0.11400000751018524, -0.6600000262260437, 0.7400000095367432, 192.0, 0.0, 0.0, 0.0, 0.0, 0.0, 0.0, 0.0, 0.0, 0.0, 1.61375953102695E9, 2021-02-19 16:32:11.026
73.0, -10031.1943359375, 19735.181640625, -13317.146484375, 134665.765625, -187500.015625, -137291.453125, -187500.015625, -187500.015625, -0.11400000751018524, -0.6600000262260437, 0.7400000095367432, 192.0, 0.0, 0.0, 0.0, 0.0, 0.0, 0.0, 0.0, 0.0, 0.0, 1.613759531029838E9, 2021-02-19 16:32:11.029
74.0, -10131.173828125, 19762.427734375, -13293.7216796875, 134684.125, -187500.015625, -136742.15625, -187500.015625, -187500.015625, -0.11400000751018524, -0.6600000262260437, 0.7400000095367432, 192.0, 0.0, 0.0, 0.0, 0.0, 0.0, 0.0, 0.0, 0.0, 0.0, 1.613759531033955E9, 2021-02-19 16:32:11.033
75.0, -10425.5009765625, 19946.875, -13112.5830078125, 134860.765625, -187500.015625, -138209.421875, -187500.015625, -187500.015625, -0.11400000751018524, -0.6600000262260437, 0.7400000095367432, 192.0, 0.0, 0.0, 0.0, 0.0, 0.0, 0.0, 0.0, 0.0, 0.0, 1.6137595310368335E9, 2021-02-19 16:32:11.036
76.0, -10330.1044921875, 19965.203125, -13091.349609375, 134886.375, -187500.015625, -138939.59375, -187500.015625, -187500.015625, -0.10600000619888306, -0.6700000166893005, 0.7360000610351562, 192.0, 252.0, 176.0, 235.0, 16.0, 23.0, 0.0, 0.0, 0.0, 0.0, 1.6137595310398898E9, 2021-02-19 16:32:11.039
77.0, -10074.5341796875, 19774.7890625, -13280.1767578125, 134703.078125, -187500.015625, -137574.515625, -187500.015625, -187500.015625, -0.10600000619888306, -0.6700000166893005, 0.7360000610351562, 192.0, 0.0, 0.0, 0.0, 0.0, 0.0, 0.0, 0.0, 0.0, 0.0, 1.6137595310439496E9, 2021-02-19 16:32:11.043
78.0, -10082.6923828125, 19728.85546875, -13328.1884765625, 134648.09375, -187500.015625, -136640.546875, -187500.015625, -187500.015625, -0.10600000619888306, -0.6700000166893005, 0.7360000610351562, 192.0, 0.0, 0.0, 0.0, 0.0, 0.0, 0.0, 0.0, 0.0, 0.0, 1.6137595310479913E9, 2021-02-19 16:32:11.047
79.0, -10394.1865234375, 19930.0, -13133.236328125, 134837.34375, -187500.015625, -137895.171875, -187500.015625, -187500.015625, -0.10600000619888306, -0.6700000166893005, 0.7360000610351562, 192.0, 0.0, 0.0, 0.0, 0.0, 0.0, 0.0, 0.0, 0.0, 0.0, 1.6137595310518816E9, 2021-02-19 16:32:11.051
80.0, -10347.046875, 19991.9140625, -13069.8466796875, 134907.546875, -187500.015625, -138997.890625, -187500.015625, -187500.015625, -0.10600000619888306, -0.6700000166893005, 0.7360000610351562, 192.0, 0.0, 0.0, 0.0, 0.0, 0.0, 0.0, 0.0, 0.0, 0.0, 1.6137595310548673E9, 2021-02-19 16:32:11.054
81.0, -10124.087890625, 19739.115234375, -13316.744140625, 134658.921875, -187500.015625, -137728.828125, -187500.015625, -187500.015625, -0.10600000619888306, -0.6700000166893005, 0.7360000610351562, 192.0, 0.0, 0.0, 0.0, 0.0, 0.0, 0.0, 0.0, 0.0, 0.0, 1.61375953105786E9, 2021-02-19 16:32:11.057
82.0, -10098.5625, 19631.40234375, -13425.26171875, 134544.125, -187500.015625, -136491.28125, -187500.015625, -187500.015625, -0.10600000619888306, -0.6700000166893005, 0.7360000610351562, 192.0, 0.0, 0.0, 0.0, 0.0, 0.0, 0.0, 0.0, 0.0, 0.0, 1.6137595310618536E9, 2021-02-19 16:32:11.061
83.0, -10412.134765625, 19828.521484375, -13233.998046875, 134728.171875, -187500.015625, -137459.171875, -187500.015625, -187500.015625, -0.10600000619888306, -0.6700000166893005, 0.7360000610351562, 192.0, 0.0, 0.0, 0.0, 0.0, 0.0, 0.0, 0.0, 0.0, 0.0, 1.613759531064908E9, 2021-02-19 16:32:11.064
84.0, -10480.1513671875, 19975.798828125, -13087.99609375, 134881.59375, -187500.015625, -138760.234375, -187500.015625, -187500.015625, -0.10600000619888306, -0.6700000166893005, 0.7360000610351562, 192.0, 0.0, 0.0, 0.0, 0.0, 0.0, 0.0, 0.0, 0.0, 0.0, 1.613759531067944E9, 2021-02-19 16:32:11.067
85.0, -10162.3095703125, 19793.384765625, -13264.5751953125, 134710.8125, -187500.015625, -138145.6875, -187500.015625, -187500.015625, -0.10600000619888306, -0.6700000166893005, 0.7360000610351562, 192.0, 0.0, 0.0, 0.0, 0.0, 0.0, 0.0, 0.0, 0.0, 0.0, 1.6137595310719016E9, 2021-02-19 16:32:11.071
86.0, -10049.4560546875, 19674.921875, -13380.5361328125, 134583.375, -187500.015625, -136669.109375, -187500.015625, -187500.015625, -0.11400000751018524, -0.6600000262260437, 0.7260000109672546, 192.0, 252.0, 112.0, 235.0, 96.0, 22.0, 176.0, 0.0, 0.0, 0.0, 1.6137595310749156E9, 2021-02-19 16:32:11.074
87.0, -10317.744140625, 19863.16796875, -13198.7265625, 134758.1875, -187500.015625, -137246.390625, -187500.015625, -187500.015625, -0.11400000751018524, -0.6600000262260437, 0.7260000109672546, 192.0, 0.0, 0.0, 0.0, 0.0, 0.0, 0.0, 0.0, 0.0, 0.0, 1.613759531077947E9, 2021-02-19 16:32:11.077
88.0, -10434.53125, 19982.548828125, -13080.59765625, 134880.5, -187500.015625, -138776.75, -187500.015625, -187500.015625, -0.11400000751018524, -0.6600000262260437, 0.7260000109672546, 192.0, 0.0, 0.0, 0.0, 0.0, 0.0, 0.0, 0.0, 0.0, 0.0, 1.613759531080946E9, 2021-02-19 16:32:11.080
89.0, -10195.6806640625, 19886.234375, -13169.177734375, 134790.9375, -187500.015625, -138383.25, -187500.015625, -187500.015625, -0.11400000751018524, -0.6600000262260437, 0.7260000109672546, 192.0, 0.0, 0.0, 0.0, 0.0, 0.0, 0.0, 0.0, 0.0, 0.0, 1.6137595310849247E9, 2021-02-19 16:32:11.084
90.0, -10018.4765625, 19718.126953125, -13333.91015625, 134620.78125, -187500.015625, -136824.171875, -187500.015625, -187500.015625, -0.11400000751018524, -0.6600000262260437, 0.7260000109672546, 192.0, 0.0, 0.0, 0.0, 0.0, 0.0, 0.0, 0.0, 0.0, 0.0, 1.6137595310889592E9, 2021-02-19 16:32:11.088
91.0, -10229.56640625, 19867.525390625, -13190.703125, 134758.078125, -187500.015625, -137013.78125, -187500.015625, -187500.015625, -0.11400000751018524, -0.6600000262260437, 0.7260000109672546, 192.0, 0.0, 0.0, 0.0, 0.0, 0.0, 0.0, 0.0, 0.0, 0.0, 1.61375953109209E9, 2021-02-19 16:32:11.092
92.0, -10417.72265625, 20045.333984375, -13017.5888671875, 134938.6875, -187500.015625, -138609.796875, -187500.015625, -187500.015625, -0.11400000751018524, -0.6600000262260437, 0.7260000109672546, 192.0, 0.0, 0.0, 0.0, 0.0, 0.0, 0.0, 0.0, 0.0, 0.0, 1.613759531095969E9, 2021-02-19 16:32:11.095
93.0, -10229.0517578125, 19879.619140625, -13178.990234375, 134781.90625, -187500.015625, -138607.234375, -187500.015625, -187500.015625, -0.11400000751018524, -0.6600000262260437, 0.7260000109672546, 192.0, 0.0, 0.0, 0.0, 0.0, 0.0, 0.0, 0.0, 0.0, 0.0, 1.613759531099028E9, 2021-02-19 16:32:11.099
94.0, -10036.916015625, 19698.16796875, -13355.2119140625, 134597.703125, -187500.015625, -137023.390625, -187500.015625, -187500.015625, -0.11400000751018524, -0.6600000262260437, 0.7260000109672546, 192.0, 0.0, 0.0, 0.0, 0.0, 0.0, 0.0, 0.0, 0.0, 0.0, 1.6137595311020813E9, 2021-02-19 16:32:11.102
95.0, -10192.1943359375, 19762.986328125, -13294.0126953125, 134649.828125, -187500.015625, -136764.78125, -187500.015625, -187500.015625, -0.11400000751018524, -0.6600000262260437, 0.7260000109672546, 192.0, 0.0, 0.0, 0.0, 0.0, 0.0, 0.0, 0.0, 0.0, 0.0, 1.6137595311049693E9, 2021-02-19 16:32:11.104
96.0, -10464.013671875, 19936.50390625, -13124.3408203125, 134820.78125, -187500.015625, -138306.265625, -187500.015625, -187500.015625, -0.10400000214576721, -0.6660000085830688, 0.7420000433921814, 192.0, 252.0, 192.0, 235.0, 48.0, 23.0, 48.0, 0.0, 0.0, 0.0, 1.613759531108039E9, 2021-02-19 16:32:11.108
97.0, -10324.13671875, 19922.130859375, -13134.8681640625, 134816.6875, -187500.015625, -138745.078125, -187500.015625, -187500.015625, -0.10400000214576721, -0.6660000085830688, 0.7420000433921814, 192.0, 0.0, 0.0, 0.0, 0.0, 0.0, 0.0, 0.0, 0.0, 0.0, 1.6137595311120284E9, 2021-02-19 16:32:11.112
98.0, -10075.65234375, 19736.791015625, -13313.8388671875, 134634.703125, -187500.015625, -137266.8125, -187500.015625, -187500.015625, -0.10400000214576721, -0.6660000085830688, 0.7420000433921814, 192.0, 0.0, 0.0, 0.0, 0.0, 0.0, 0.0, 0.0, 0.0, 0.0, 1.6137595311152055E9, 2021-02-19 16:32:11.115
99.0, -10151.7373046875, 19704.26953125, -13351.009765625, 134592.796875, -187500.015625, -136589.734375, -187500.015625, -187500.015625, -0.10400000214576721, -0.6660000085830688, 0.7420000433921814, 192.0, 0.0, 0.0, 0.0, 0.0, 0.0, 0.0, 0.0, 0.0, 0.0, 1.6137595311249804E9, 2021-02-19 16:32:11.124
100.0, -10452.0556640625, 19934.669921875, -13125.3017578125, 134813.71875, -187500.015625, -137993.71875, -187500.015625, -187500.015625, -0.10400000214576721, -0.6660000085830688, 0.7420000433921814, 192.0, 0.0, 0.0, 0.0, 0.0, 0.0, 0.0, 0.0, 0.0, 0.0, 1.6137595311280403E9, 2021-02-19 16:32:11.128
101.0, -10364.8837890625, 19963.302734375, -13092.17578125, 134848.265625, -187500.015625, -138817.890625, -187500.015625, -187500.015625, -0.10400000214576721, -0.6660000085830688, 0.7420000433921814, 192.0, 0.0, 0.0, 0.0, 0.0, 0.0, 0.0, 0.0, 0.0, 0.0, 1.613759531131122E9, 2021-02-19 16:32:11.131
102.0, -10118.09765625, 19710.19140625, -13341.15234375, 134602.421875, -187500.015625, -137494.71875, -187500.015625, -187500.015625, -0.10400000214576721, -0.6660000085830688, 0.7420000433921814, 192.0, 0.0, 0.0, 0.0, 0.0, 0.0, 0.0, 0.0, 0.0, 0.0, 1.613759531134078E9, 2021-02-19 16:32:11.134
103.0, -10116.17578125, 19670.71875, -13381.318359375, 134553.765625, -187500.015625, -136492.078125, -187500.015625, -187500.015625, -0.10400000214576721, -0.6660000085830688, 0.7420000433921814, 192.0, 0.0, 0.0, 0.0, 0.0, 0.0, 0.0, 0.0, 0.0, 0.0, 1.613759531137992E9, 2021-02-19 16:32:11.137
104.0, -10447.8759765625, 19877.451171875, -13179.2138671875, 134752.40625, -187500.015625, -137554.515625, -187500.015625, -187500.015625, -0.10400000214576721, -0.6660000085830688, 0.7420000433921814, 192.0, 0.0, 0.0, 0.0, 0.0, 0.0, 0.0, 0.0, 0.0, 0.0, 1.6137595311410203E9, 2021-02-19 16:32:11.141
105.0, -10446.1767578125, 20016.5, -13039.6943359375, 134897.25, -187500.015625, -138708.734375, -187500.015625, -187500.015625, -0.10400000214576721, -0.6660000085830688, 0.7420000433921814, 192.0, 0.0, 0.0, 0.0, 0.0, 0.0, 0.0, 0.0, 0.0, 0.0, 1.6137595311441095E9, 2021-02-19 16:32:11.144
106.0, -10150.6416015625, 19838.513671875, -13211.35546875, 134727.078125, -187500.015625, -137731.984375, -187500.015625, -187500.015625, -0.1120000034570694, -0.6700000166893005, 0.7420000433921814, 192.0, 252.0, 128.0, 235.0, 16.0, 23.0, 48.0, 0.0, 0.0, 0.0, 1.6137595311482148E9, 2021-02-19 16:32:11.148
107.0, -10087.5205078125, 19710.125, -13338.1572265625, 134588.859375, -187500.015625, -136352.078125, -187500.015625, -187500.015625, -0.1120000034570694, -0.6700000166893005, 0.7420000433921814, 192.0, 0.0, 0.0, 0.0, 0.0, 0.0, 0.0, 0.0, 0.0, 0.0, 1.6137595311520045E9, 2021-02-19 16:32:11.152
108.0, -10356.166015625, 19851.052734375, -13203.7109375, 134718.15625, -187500.015625, -137360.34375, -187500.015625, -187500.015625, -0.1120000034570694, -0.6700000166893005, 0.7420000433921814, 192.0, 0.0, 0.0, 0.0, 0.0, 0.0, 0.0, 0.0, 0.0, 0.0, 1.6137595311549997E9, 2021-02-19 16:32:11.154
109.0, -10441.3935546875, 19965.13671875, -13089.494140625, 134837.75, -187500.015625, -138741.546875, -187500.015625, -187500.015625, -0.1120000034570694, -0.6700000166893005, 0.7420000433921814, 192.0, 0.0, 0.0, 0.0, 0.0, 0.0, 0.0, 0.0, 0.0, 0.0, 1.6137595311580553E9, 2021-02-19 16:32:11.158
110.0, -10216.1328125, 19837.775390625, -13212.0263671875, 134718.671875, -187500.015625, -138028.875, -187500.015625, -187500.015625, -0.1120000034570694, -0.6700000166893005, 0.7420000433921814, 192.0, 0.0, 0.0, 0.0, 0.0, 0.0, 0.0, 0.0, 0.0, 0.0, 1.6137595311610737E9, 2021-02-19 16:32:11.161
111.0, -10076.1435546875, 19688.3984375, -13358.2294921875, 134566.453125, -187500.015625, -136554.09375, -187500.015625, -187500.015625, -0.1120000034570694, -0.6700000166893005, 0.7420000433921814, 192.0, 0.0, 0.0, 0.0, 0.0, 0.0, 0.0, 0.0, 0.0, 0.0, 1.613759531165122E9, 2021-02-19 16:32:11.165
112.0, -10342.2412109375, 19813.591796875, -13238.7587890625, 134677.6875, -187500.015625, -137027.203125, -187500.015625, -187500.015625, -0.1120000034570694, -0.6700000166893005, 0.7420000433921814, 192.0, 0.0, 0.0, 0.0, 0.0, 0.0, 0.0, 0.0, 0.0, 0.0, 1.6137595311679952E9, 2021-02-19 16:32:11.167
113.0, -10494.9931640625, 19986.6171875, -13067.6787109375, 134851.21875, -187500.015625, -138594.015625, -187500.015625, -187500.015625, -0.1120000034570694, -0.6700000166893005, 0.7420000433921814, 192.0, 0.0, 0.0, 0.0, 0.0, 0.0, 0.0, 0.0, 0.0, 0.0, 1.6137595311711009E9, 2021-02-19 16:32:11.171
114.0, -10270.0, 19839.943359375, -13209.3662109375, 134712.03125, -187500.015625, -138291.6875, -187500.015625, -187500.015625, -0.1120000034570694, -0.6700000166893005, 0.7420000433921814, 192.0, 0.0, 0.0, 0.0, 0.0, 0.0, 0.0, 0.0, 0.0, 0.0, 1.6137595311753044E9, 2021-02-19 16:32:11.175
115.0, -10097.9814453125, 19635.314453125, -13413.7509765625, 134505.90625, -187500.015625, -136676.265625, -187500.015625, -187500.015625, -0.1120000034570694, -0.6700000166893005, 0.7420000433921814, 192.0, 0.0, 0.0, 0.0, 0.0, 0.0, 0.0, 0.0, 0.0, 0.0, 1.6137595311781309E9, 2021-02-19 16:32:11.178
116.0, -10304.4892578125, 19745.462890625, -13308.8984375, 134605.796875, -187500.015625, -136714.6875, -187500.015625, -187500.015625, -0.11000000685453415, -0.6620000600814819, 0.7380000352859497, 192.0, 252.0, 144.0, 235.0, 80.0, 23.0, 16.0, 0.0, 0.0, 0.0, 1.6137595311810064E9, 2021-02-19 16:32:11.181
117.0, -10520.1162109375, 19943.41015625, -13112.1806640625, 134802.40625, -187500.015625, -138309.6875, -187500.015625, -187500.015625, -0.11000000685453415, -0.6620000600814819, 0.7380000352859497, 192.0, 0.0, 0.0, 0.0, 0.0, 0.0, 0.0, 0.0, 0.0, 0.0, 1.613759531184039E9, 2021-02-19 16:32:11.184
118.0, -10328.181640625, 19873.740234375, -13176.576171875, 134741.40625, -187500.015625, -138435.21875, -187500.015625, -187500.015625, -0.11000000685453415, -0.6620000600814819, 0.7380000352859497, 192.0, 0.0, 0.0, 0.0, 0.0, 0.0, 0.0, 0.0, 0.0, 0.0, 1.6137595311881003E9, 2021-02-19 16:32:11.188
119.0, -10098.7861328125, 19698.591796875, -13347.58984375, 134565.125, -187500.015625, -136857.890625, -187500.015625, -187500.015625, -0.11000000685453415, -0.6620000600814819, 0.7380000352859497, 192.0, 0.0, 0.0, 0.0, 0.0, 0.0, 0.0, 0.0, 0.0, 0.0, 1.6137595311911151E9, 2021-02-19 16:32:11.191
120.0, -10216.2890625, 19756.28125, -13294.0576171875, 134610.578125, -187500.015625, -136497.21875, -187500.015625, -187500.015625, -0.11000000685453415, -0.6620000600814819, 0.7380000352859497, 192.0, 0.0, 0.0, 0.0, 0.0, 0.0, 0.0, 0.0, 0.0, 0.0, 1.6137595311941626E9, 2021-02-19 16:32:11.194
121.0, -10483.2138671875, 19940.66015625, -13114.259765625, 134788.09375, -187500.015625, -138018.796875, -187500.015625, -187500.015625, -0.11000000685453415, -0.6620000600814819, 0.7380000352859497, 192.0, 0.0, 0.0, 0.0, 0.0, 0.0, 0.0, 0.0, 0.0, 0.0, 1.613759531197136E9, 2021-02-19 16:32:11.197
122.0, -10348.5888671875, 19935.876953125, -13118.529296875, 134789.578125, -187500.015625, -138552.984375, -187500.015625, -187500.015625, -0.11000000685453415, -0.6620000600814819, 0.7380000352859497, 192.0, 0.0, 0.0, 0.0, 0.0, 0.0, 0.0, 0.0, 0.0, 0.0, 1.6137595312010508E9, 2021-02-19 16:32:11.201
123.0, -10094.8740234375, 19733.7734375, -13317.2138671875, 134590.875, -187500.015625, -137094.234375, -187500.015625, -187500.015625, -0.11000000685453415, -0.6620000600814819, 0.7380000352859497, 192.0, 0.0, 0.0, 0.0, 0.0, 0.0, 0.0, 0.0, 0.0, 0.0, 1.613759531204072E9, 2021-02-19 16:32:11.204
124.0, -10147.4453125, 19703.8671875, -13351.27734375, 134551.546875, -187500.015625, -136324.09375, -187500.015625, -187500.015625, -0.11000000685453415, -0.6620000600814819, 0.7380000352859497, 192.0, 0.0, 0.0, 0.0, 0.0, 0.0, 0.0, 0.0, 0.0, 0.0, 1.613759531216069E9, 2021-02-19 16:32:11.216
125.0, -10446.84765625, 19925.08203125, -13134.9794921875, 134766.28125, -187500.015625, -137649.015625, -187500.015625, -187500.015625, -0.11000000685453415, -0.6620000600814819, 0.7380000352859497, 192.0, 0.0, 0.0, 0.0, 0.0, 0.0, 0.0, 0.0, 0.0, 0.0, 1.6137595312191153E9, 2021-02-19 16:32:11.219
126.0, -10359.7421875, 19981.85546875, -13075.1220703125, 134831.375, -187500.015625, -138563.796875, -187500.015625, -187500.015625, -0.10600000619888306, -0.6640000343322754, 0.7400000095367432, 192.0, 252.0, 176.0, 235.0, 64.0, 23.0, 32.0, 0.0, 0.0, 0.0, 1.6137595312231388E9, 2021-02-19 16:32:11.223
127.0, -10104.6201171875, 19761.66796875, -13292.1572265625, 134616.140625, -187500.015625, -137238.671875, -187500.015625, -187500.015625, -0.10600000619888306, -0.6640000343322754, 0.7400000095367432, 192.0, 0.0, 0.0, 0.0, 0.0, 0.0, 0.0, 0.0, 0.0, 0.0, 1.6137595312341526E9, 2021-02-19 16:32:11.234
128.0, -10101.4677734375, 19654.291015625, -13400.787109375, 134504.546875, -187500.015625, -136067.78125, -187500.015625, -187500.015625, -0.10600000619888306, -0.6640000343322754, 0.7400000095367432, 192.0, 0.0, 0.0, 0.0, 0.0, 0.0, 0.0, 0.0, 0.0, 0.0, 1.6137595312501075E9, 2021-02-19 16:32:11.250
129.0, -10430.2626953125, 19848.03515625, -13215.2451171875, 134683.84375, -187500.015625, -137163.828125, -187500.015625, -187500.015625, -0.10600000619888306, -0.6640000343322754, 0.7400000095367432, 192.0, 0.0, 0.0, 0.0, 0.0, 0.0, 0.0, 0.0, 0.0, 0.0, 1.61375953125311E9, 2021-02-19 16:32:11.253
130.0, -10470.71875, 19943.43359375, -13121.61328125, 134783.71875, -187500.015625, -138340.484375, -187500.015625, -187500.015625, -0.10600000619888306, -0.6640000343322754, 0.7400000095367432, 192.0, 0.0, 0.0, 0.0, 0.0, 0.0, 0.0, 0.0, 0.0, 0.0, 1.613759531259359E9, 2021-02-19 16:32:11.259
131.0, -10155.6708984375, 19781.494140625, -13278.2548828125, 134631.765625, -187500.015625, -137584.421875, -187500.015625, -187500.015625, -0.10600000619888306, -0.6640000343322754, 0.7400000095367432, 192.0, 0.0, 0.0, 0.0, 0.0, 0.0, 0.0, 0.0, 0.0, 0.0, 1.6137595312702384E9, 2021-02-19 16:32:11.270
132.0, -10062.28515625, 19662.29296875, -13394.70703125, 134506.84375, -187500.015625, -136185.125, -187500.015625, -187500.015625, -0.10600000619888306, -0.6640000343322754, 0.7400000095367432, 192.0, 0.0, 0.0, 0.0, 0.0, 0.0, 0.0, 0.0, 0.0, 0.0, 1.613759531273343E9, 2021-02-19 16:32:11.273
133.0, -10367.7890625, 19847.54296875, -13214.7978515625, 134677.390625, -187500.015625, -136893.140625, -187500.015625, -187500.015625, -0.10600000619888306, -0.6640000343322754, 0.7400000095367432, 192.0, 0.0, 0.0, 0.0, 0.0, 0.0, 0.0, 0.0, 0.0, 0.0, 1.613759531277214E9, 2021-02-19 16:32:11.277
134.0, -10445.685546875, 19992.919921875, -13069.958984375, 134827.96875, -187500.015625, -138368.9375, -187500.015625, -187500.015625, -0.10600000619888306, -0.6640000343322754, 0.7400000095367432, 192.0, 0.0, 0.0, 0.0, 0.0, 0.0, 0.0, 0.0, 0.0, 0.0, 1.6137595312801237E9, 2021-02-19 16:32:11.280
135.0, -10199.369140625, 19833.953125, -13222.4423828125, 134676.046875, -187500.015625, -137793.34375, -187500.015625, -187500.015625, -0.11600000411272049, -0.6620000600814819, 0.7480000257492065, 192.0, 252.0, 96.0, 235.0, 80.0, 23.0, 96.0, 0.0, 0.0, 0.0, 1.6137595312831435E9, 2021-02-19 16:32:11.283
136.0, -10052.3388671875, 19656.212890625, -13397.009765625, 134496.0, -187500.015625, -136248.71875, -187500.015625, -187500.015625, -0.11600000411272049, -0.6620000600814819, 0.7480000257492065, 192.0, 0.0, 0.0, 0.0, 0.0, 0.0, 0.0, 0.0, 0.0, 0.0, 1.6137595312883103E9, 2021-02-19 16:32:11.288
137.0, -10310.3232421875, 19810.484375, -13250.2705078125, 134639.171875, -187500.015625, -136598.09375, -187500.015625, -187500.015625, -0.11600000411272049, -0.6620000600814819, 0.7480000257492065, 192.0, 0.0, 0.0, 0.0, 0.0, 0.0, 0.0, 0.0, 0.0, 0.0, 1.613759531303254E9, 2021-02-19 16:32:11.303
138.0, -10477.87109375, 19970.568359375, -13091.259765625, 134803.546875, -187500.015625, -138170.40625, -187500.015625, -187500.015625, -0.11600000411272049, -0.6620000600814819, 0.7480000257492065, 192.0, 0.0, 0.0, 0.0, 0.0, 0.0, 0.0, 0.0, 0.0, 0.0, 1.613759531306152E9, 2021-02-19 16:32:11.306
139.0, -10256.142578125, 19887.84375, -13168.3955078125, 134729.109375, -187500.015625, -138017.546875, -187500.015625, -187500.015625, -0.11600000411272049, -0.6620000600814819, 0.7480000257492065, 192.0, 0.0, 0.0, 0.0, 0.0, 0.0, 0.0, 0.0, 0.0, 0.0, 1.6137595313112164E9, 2021-02-19 16:32:11.311
140.0, -10045.119140625, 19715.869140625, -13335.67578125, 134553.765625, -187500.015625, -136421.65625, -187500.015625, -187500.015625, -0.11600000411272049, -0.6620000600814819, 0.7480000257492065, 192.0, 0.0, 0.0, 0.0, 0.0, 0.0, 0.0, 0.0, 0.0, 0.0, 1.6137595313312275E9, 2021-02-19 16:32:11.331
141.0, -10216.400390625, 19790.94921875, -13265.9833984375, 134614.0625, -187500.015625, -136349.171875, -187500.015625, -187500.015625, -0.11600000411272049, -0.6620000600814819, 0.7480000257492065, 192.0, 0.0, 0.0, 0.0, 0.0, 0.0, 0.0, 0.0, 0.0, 0.0, 1.6137595313343413E9, 2021-02-19 16:32:11.334
142.0, -10453.7314453125, 19978.501953125, -13083.2578125, 134800.34375, -187500.015625, -137939.5, -187500.015625, -187500.015625, -0.11600000411272049, -0.6620000600814819, 0.7480000257492065, 192.0, 0.0, 0.0, 0.0, 0.0, 0.0, 0.0, 0.0, 0.0, 0.0, 1.6137595313372E9, 2021-02-19 16:32:11.337
143.0, -10289.625, 19880.556640625, -13175.9951171875, 134712.640625, -187500.015625, -138182.609375, -187500.015625, -187500.015625, -0.11600000411272049, -0.6620000600814819, 0.7480000257492065, 192.0, 0.0, 0.0, 0.0, 0.0, 0.0, 0.0, 0.0, 0.0, 0.0, 1.6137595313412137E9, 2021-02-19 16:32:11.341
144.0, -10073.6845703125, 19657.44140625, -13394.595703125, 134491.328125, -187500.015625, -136600.015625, -187500.015625, -187500.015625, -0.11600000411272049, -0.6620000600814819, 0.7480000257492065, 192.0, 0.0, 0.0, 0.0, 0.0, 0.0, 0.0, 0.0, 0.0, 0.0, 1.6137595313514824E9, 2021-02-19 16:32:11.351
145.0, -10204.0625, 19679.79296875, -13376.9375, 134498.359375, -187500.015625, -136099.34375, -187500.015625, -187500.015625, -0.11400000751018524, -0.6720000505447388, 0.7400000095367432, 192.0, 252.0, 112.0, 235.0, 0.0, 23.0, 32.0, 0.0, 0.0, 0.0, 1.6137595313572216E9, 2021-02-19 16:32:11.357
146.0, -10485.8515625, 19939.521484375, -13120.8310546875, 134747.015625, -187500.015625, -137606.03125, -187500.015625, -187500.015625, -0.11400000751018524, -0.6720000505447388, 0.7400000095367432, 192.0, 0.0, 0.0, 0.0, 0.0, 0.0, 0.0, 0.0, 0.0, 0.0, 1.6137595313602788E9, 2021-02-19 16:32:11.360
147.0, -10344.431640625, 19967.751953125, -13089.2705078125, 134788.375, -187500.015625, -138255.53125, -187500.015625, -187500.015625, -0.11400000751018524, -0.6720000505447388, 0.7400000095367432, 192.0, 0.0, 0.0, 0.0, 0.0, 0.0, 0.0, 0.0, 0.0, 0.0, 1.6137595314083238E9, 2021-02-19 16:32:11.408
148.0, -10065.6826171875, 19783.326171875, -13271.3701171875, 134613.53125, -187500.015625, -136835.296875, -187500.015625, -187500.015625, -0.11400000751018524, -0.6720000505447388, 0.7400000095367432, 192.0, 0.0, 0.0, 0.0, 0.0, 0.0, 0.0, 0.0, 0.0, 0.0, 1.6137595314123497E9, 2021-02-19 16:32:11.412
149.0, -10076.27734375, 19734.2421875, -13322.6005859375, 134554.953125, -187500.015625, -135973.1875, -187500.015625, -187500.015625, -0.11400000751018524, -0.6720000505447388, 0.7400000095367432, 192.0, 0.0, 0.0, 0.0, 0.0, 0.0, 0.0, 0.0, 0.0, 0.0, 1.6137595314173808E9, 2021-02-19 16:32:11.417
150.0, -10405.4970703125, 19914.53125, -13148.748046875, 134726.234375, -187500.015625, -137220.234375, -187500.015625, -187500.015625, -0.11400000751018524, -0.6720000505447388, 0.7400000095367432, 192.0, 0.0, 0.0, 0.0, 0.0, 0.0, 0.0, 0.0, 0.0, 0.0, 1.6137595314213083E9, 2021-02-19 16:32:11.421
151.0, -10389.134765625, 19919.158203125, -13144.5908203125, 134737.078125, -187500.015625, -138174.359375, -187500.015625, -187500.015625, -0.11400000751018524, -0.6720000505447388, 0.7400000095367432, 192.0, 0.0, 0.0, 0.0, 0.0, 0.0, 0.0, 0.0, 0.0, 0.0, 1.6137595314243524E9, 2021-02-19 16:32:11.424
152.0, -10145.5908203125, 19737.4609375, -13320.611328125, 134558.484375, -187500.015625, -137017.109375, -187500.015625, -187500.015625, -0.11400000751018524, -0.6720000505447388, 0.7400000095367432, 192.0, 0.0, 0.0, 0.0, 0.0, 0.0, 0.0, 0.0, 0.0, 0.0, 1.6137595314283738E9, 2021-02-19 16:32:11.428
153.0, -10113.91796875, 19686.923828125, -13370.74609375, 134498.046875, -187500.015625, -135812.078125, -187500.015625, -187500.015625, -0.11400000751018524, -0.6720000505447388, 0.7400000095367432, 192.0, 0.0, 0.0, 0.0, 0.0, 0.0, 0.0, 0.0, 0.0, 0.0, 1.6137595314402993E9, 2021-02-19 16:32:11.440
154.0, -10362.08984375, 19899.265625, -13165.4228515625, 134698.828125, -187500.015625, -136995.421875, -187500.015625, -187500.015625, -0.11400000751018524, -0.6720000505447388, 0.7400000095367432, 192.0, 0.0, 0.0, 0.0, 0.0, 0.0, 0.0, 0.0, 0.0, 0.0, 1.613759531461451E9, 2021-02-19 16:32:11.461
155.0, -10400.3779296875, 19966.87890625, -13100.3125, 134769.90625, -187500.015625, -138252.109375, -187500.015625, -187500.015625, -0.12200000882148743, -0.6640000343322754, 0.7360000610351562, 192.0, 252.0, 48.0, 235.0, 64.0, 23.0, 0.0, 0.0, 0.0, 0.0, 1.6137595314654725E9, 2021-02-19 16:32:11.465
156.0, -10161.9296875, 19828.142578125, -13234.310546875, 134636.015625, -187500.015625, -137377.859375, -187500.015625, -187500.015625, -0.12200000882148743, -0.6640000343322754, 0.7360000610351562, 192.0, 0.0, 0.0, 0.0, 0.0, 0.0, 0.0, 0.0, 0.0, 0.0, 1.613759531468357E9, 2021-02-19 16:32:11.468
157.0, -10033.7197265625, 19707.173828125, -13351.3896484375, 134513.0, -187500.015625, -135993.890625, -187500.015625, -187500.015625, -0.12200000882148743, -0.6640000343322754, 0.7360000610351562, 192.0, 0.0, 0.0, 0.0, 0.0, 0.0, 0.0, 0.0, 0.0, 0.0, 1.6137595314883683E9, 2021-02-19 16:32:11.488
158.0, -10310.2783203125, 19851.767578125, -13212.9873046875, 134645.984375, -187500.015625, -136650.625, -187500.015625, -187500.015625, -0.12200000882148743, -0.6640000343322754, 0.7360000610351562, 192.0, 0.0, 0.0, 0.0, 0.0, 0.0, 0.0, 0.0, 0.0, 0.0, 1.6137595314925292E9, 2021-02-19 16:32:11.492
159.0, -10429.033203125, 19999.916015625, -13066.091796875, 134799.203125, -187500.015625, -138141.546875, -187500.015625, -187500.015625, -0.12200000882148743, -0.6640000343322754, 0.7360000610351562, 192.0, 0.0, 0.0, 0.0, 0.0, 0.0, 0.0, 0.0, 0.0, 0.0, 1.6137595315033891E9, 2021-02-19 16:32:11.503
160.0, -10191.76953125, 19854.673828125, -13207.130859375, 134663.25, -187500.015625, -137666.53125, -187500.015625, -187500.015625, -0.12200000882148743, -0.6640000343322754, 0.7360000610351562, 192.0, 0.0, 0.0, 0.0, 0.0, 0.0, 0.0, 0.0, 0.0, 0.0, 1.6137595315084703E9, 2021-02-19 16:32:11.508
161.0, -10032.06640625, 19691.23828125, -13368.890625, 134499.203125, -187500.015625, -136113.375, -187500.015625, -187500.015625, -0.12200000882148743, -0.6640000343322754, 0.7360000610351562, 192.0, 0.0, 0.0, 0.0, 0.0, 0.0, 0.0, 0.0, 0.0, 0.0, 1.6137595315135517E9, 2021-02-19 16:32:11.513
162.0, -10258.6455078125, 19818.017578125, -13249.4658203125, 134609.75, -187500.015625, -136366.890625, -187500.015625, -187500.015625, -0.12200000882148743, -0.6640000343322754, 0.7360000610351562, 192.0, 0.0, 0.0, 0.0, 0.0, 0.0, 0.0, 0.0, 0.0, 0.0, 1.6137595315245893E9, 2021-02-19 16:32:11.524
163.0, -10441.6396484375, 19998.91015625, -13067.0751953125, 134789.484375, -187500.015625, -137944.859375, -187500.015625, -187500.015625, -0.12200000882148743, -0.6640000343322754, 0.7360000610351562, 192.0, 0.0, 0.0, 0.0, 0.0, 0.0, 0.0, 0.0, 0.0, 0.0, 1.6137595315364213E9, 2021-02-19 16:32:11.536
164.0, -10241.703125, 19878.1875, -13180.48828125, 134677.59375, -187500.015625, -137891.53125, -187500.015625, -187500.015625, -0.12200000882148743, -0.6640000343322754, 0.7360000610351562, 192.0, 0.0, 0.0, 0.0, 0.0, 0.0, 0.0, 0.0, 0.0, 0.0, 1.613759531539444E9, 2021-02-19 16:32:11.539
180.0, -10425.0986328125, 19996.138671875, -13067.0302734375, 134767.21875, -187500.015625, -138175.265625, -187500.015625, -187500.015625, -0.12200000882148743, -0.6640000343322754, 0.7360000610351562, 192.0, 0.0, 0.0, 0.0, 0.0, 0.0, 0.0, 0.0, 0.0, 0.0, 1.6137595315425155E9, 2021-02-19 16:32:11.542
166.0, -10220.021484375, 19733.482421875, -13327.205078125, 134517.84375, -187500.015625, -136119.1875, -187500.015625, -187500.015625, -0.12200000882148743, -0.6640000343322754, 0.7360000610351562, 192.0, 0.0, 0.0, 0.0, 0.0, 0.0, 0.0, 0.0, 0.0, 0.0, 1.6137595315494573E9, 2021-02-19 16:32:11.549
167.0, -10477.9609375, 19940.68359375, -13126.1064453125, 134721.21875, -187500.015625, -137682.609375, -187500.015625, -187500.015625, -0.12200000882148743, -0.6640000343322754, 0.7360000610351562, 192.0, 0.0, 0.0, 0.0, 0.0, 0.0, 0.0, 0.0, 0.0, 0.0, 1.6137595315535133E9, 2021-02-19 16:32:11.553
168.0, -10311.216796875, 19926.66796875, -13137.5498046875, 134715.140625, -187500.015625, -138058.453125, -187500.015625, -187500.015625, -0.12200000882148743, -0.6640000343322754, 0.7360000610351562, 192.0, 0.0, 0.0, 0.0, 0.0, 0.0, 0.0, 0.0, 0.0, 0.0, 1.6137595315705512E9, 2021-02-19 16:32:11.570
169.0, -10070.5556640625, 19704.0234375, -13355.859375, 134500.078125, -187500.015625, -136553.15625, -187500.015625, -187500.015625, -0.12200000882148743, -0.6640000343322754, 0.7360000610351562, 192.0, 0.0, 0.0, 0.0, 0.0, 0.0, 0.0, 0.0, 0.0, 0.0, 1.6137595315756888E9, 2021-02-19 16:32:11.575
170.0, -10156.7890625, 19732.455078125, -13330.7587890625, 134516.84375, -187500.015625, -135956.625, -187500.015625, -187500.015625, -0.12200000882148743, -0.6640000343322754, 0.7360000610351562, 192.0, 0.0, 0.0, 0.0, 0.0, 0.0, 0.0, 0.0, 0.0, 0.0, 1.6137595315785615E9, 2021-02-19 16:32:11.578
178.0, -10064.23046875, 19667.03125, -13390.8623046875, 134439.234375, -187500.015625, -135863.546875, -187500.015625, -187500.015625, -0.12200000882148743, -0.6640000343322754, 0.7360000610351562, 192.0, 0.0, 0.0, 0.0, 0.0, 0.0, 0.0, 0.0, 0.0, 0.0, 1.6137595315917275E9, 2021-02-19 16:32:11.591
172.0, -10322.8623046875, 19961.0234375, -13102.2119140625, 134747.234375, -187500.015625, -138162.921875, -187500.015625, -187500.015625, -0.12200000882148743, -0.6640000343322754, 0.7360000610351562, 192.0, 0.0, 0.0, 0.0, 0.0, 0.0, 0.0, 0.0, 0.0, 0.0, 1.6137595316035483E9, 2021-02-19 16:32:11.603
176.0, -10420.875, 19961.24609375, -13104.201171875, 134739.078125, -187500.015625, -138101.390625, -187500.015625, -187500.015625, -0.12200000882148743, -0.6640000343322754, 0.7360000610351562, 192.0, 0.0, 0.0, 0.0, 0.0, 0.0, 0.0, 0.0, 0.0, 0.0, 1.6137595316185493E9, 2021-02-19 16:32:11.618
174.0, -10112.755859375, 19692.333984375, -13364.6884765625, 134473.65625, -187500.015625, -135755.1875, -187500.015625, -187500.015625, -0.12200000882148743, -0.6640000343322754, 0.7360000610351562, 192.0, 0.0, 0.0, 0.0, 0.0, 0.0, 0.0, 0.0, 0.0, 0.0, 1.6137595316246264E9, 2021-02-19 16:32:11.624
181.0, -10166.8466796875, 19831.5625, -13226.0859375, 134610.21875, -187500.015625, -137426.328125, -187500.015625, -187500.015625, -0.12200000882148743, -0.6640000343322754, 0.7360000610351562, 192.0, 0.0, 0.0, 0.0, 0.0, 0.0, 0.0, 0.0, 0.0, 0.0, 1.613759531627684E9, 2021-02-19 16:32:11.627
193.0, -10346.0634765625, 19905.189453125, -13159.455078125, 134665.234375, -187500.015625, -138047.625, -187500.015625, -187500.015625, -0.12200000882148743, -0.6640000343322754, 0.7360000610351562, 192.0, 0.0, 0.0, 0.0, 0.0, 0.0, 0.0, 0.0, 0.0, 0.0, 1.613759531641755E9, 2021-02-19 16:32:11.641
183.0, -10322.5048828125, 19803.15234375, -13261.6025390625, 134561.9375, -187500.015625, -136504.09375, -187500.015625, -187500.015625, -0.12200000882148743, -0.6640000343322754, 0.7360000610351562, 192.0, 0.0, 0.0, 0.0, 0.0, 0.0, 0.0, 0.0, 0.0, 0.0, 1.6137595316457026E9, 2021-02-19 16:32:11.645
184.0, -10467.2548828125, 19994.259765625, -13074.6748046875, 134751.53125, -187500.015625, -138067.953125, -187500.015625, -187500.015625, -0.12200000882148743, -0.6640000343322754, 0.7360000610351562, 192.0, 0.0, 0.0, 0.0, 0.0, 0.0, 0.0, 0.0, 0.0, 0.0, 1.6137595316557093E9, 2021-02-19 16:32:11.655
191.0, -10206.4990234375, 19705.810546875, -13355.033203125, 134456.0, -187500.015625, -136029.921875, -187500.015625, -187500.015625, -0.12200000882148743, -0.6640000343322754, 0.7360000610351562, 192.0, 0.0, 0.0, 0.0, 0.0, 0.0, 0.0, 0.0, 0.0, 0.0, 1.6137595316607876E9, 2021-02-19 16:32:11.660
200.0, -10351.5615234375, 19937.732421875, -13126.2626953125, 134660.21875, -187500.015625, -137020.078125, -187500.015625, -187500.015625, -0.12200000882148743, -0.6640000343322754, 0.7360000610351562, 192.0, 0.0, 0.0, 0.0, 0.0, 0.0, 0.0, 0.0, 0.0, 0.0, 1.6137595316757536E9, 2021-02-19 16:32:11.675
204.0, -10361.3291015625, 19894.482421875, -13168.6640625, 134620.65625, -187500.015625, -136649.9375, -187500.015625, -187500.015625, -0.11600000411272049, -0.6580000519752502, 0.7420000433921814, 192.0, 252.0, 96.0, 235.0, 112.0, 23.0, 48.0, 0.0, 0.0, 0.0, 1.6137595316805997E9, 2021-02-19 16:32:11.680
194.0, -10077.328125, 19754.203125, -13303.9140625, 134514.609375, -187500.015625, -136583.09375, -187500.015625, -187500.015625, -0.11600000411272049, -0.6580000519752502, 0.7420000433921814, 192.0, 0.0, 0.0, 0.0, 0.0, 0.0, 0.0, 0.0, 0.0, 0.0, 1.6137595316846209E9, 2021-02-19 16:32:11.684
198.0, -10085.0400390625, 19786.03125, -13274.365234375, 134532.640625, -187500.015625, -136725.53125, -187500.015625, -187500.015625, -0.11600000411272049, -0.6580000519752502, 0.7420000433921814, 192.0, 0.0, 0.0, 0.0, 0.0, 0.0, 0.0, 0.0, 0.0, 0.0, 1.6137595316876638E9, 2021-02-19 16:32:11.687
196.0, -10399.08203125, 20010.822265625, -13055.7431640625, 134747.15625, -187500.015625, -137217.671875, -187500.015625, -187500.015625, -0.11600000411272049, -0.6580000519752502, 0.7420000433921814, 192.0, 0.0, 0.0, 0.0, 0.0, 0.0, 0.0, 0.0, 0.0, 0.0, 1.6137595316906211E9, 2021-02-19 16:32:11.690
201.0, -10360.123046875, 19963.884765625, -13100.4013671875, 134705.359375, -187500.015625, -138170.4375, -187500.015625, -187500.015625, -0.11600000411272049, -0.6580000519752502, 0.7420000433921814, 192.0, 0.0, 0.0, 0.0, 0.0, 0.0, 0.0, 0.0, 0.0, 0.0, 1.6137595316936605E9, 2021-02-19 16:32:11.693
202.0, -10144.919921875, 19735.560546875, -13323.5166015625, 134487.296875, -187500.015625, -137137.78125, -187500.015625, -187500.015625, -0.11600000411272049, -0.6580000519752502, 0.7420000433921814, 192.0, 0.0, 0.0, 0.0, 0.0, 0.0, 0.0, 0.0, 0.0, 0.0, 1.6137595316976016E9, 2021-02-19 16:32:11.697
209.0, -10447.1376953125, 19974.880859375, -13092.98046875, 134696.6875, -187500.015625, -137936.125, -187500.015625, -187500.015625, -0.11600000411272049, -0.6580000519752502, 0.7420000433921814, 192.0, 0.0, 0.0, 0.0, 0.0, 0.0, 0.0, 0.0, 0.0, 0.0, 1.6137595317016225E9, 2021-02-19 16:32:11.701
212.0, -10229.767578125, 19810.126953125, -13256.193359375, 134533.5625, -187500.015625, -136121.3125, -187500.015625, -187500.015625, -0.11600000411272049, -0.6580000519752502, 0.7420000433921814, 192.0, 0.0, 0.0, 0.0, 0.0, 0.0, 0.0, 0.0, 0.0, 0.0, 1.613759531715707E9, 2021-02-19 16:32:11.715
207.0, -10019.5263671875, 19709.029296875, -13349.265625, 134443.703125, -187500.015625, -135952.265625, -187500.015625, -187500.015625, -0.11600000411272049, -0.6580000519752502, 0.7420000433921814, 192.0, 0.0, 0.0, 0.0, 0.0, 0.0, 0.0, 0.0, 0.0, 0.0, 1.6137595317207413E9, 2021-02-19 16:32:11.720
221.0, -10447.919921875, 19924.880859375, -13145.865234375, 134633.578125, -187500.015625, -137073.453125, -187500.015625, -187500.015625, -0.11600000411272049, -0.6580000519752502, 0.7420000433921814, 192.0, 0.0, 0.0, 0.0, 0.0, 0.0, 0.0, 0.0, 0.0, 0.0, 1.6137595317236402E9, 2021-02-19 16:32:11.723
213.0, -10445.103515625, 20002.083984375, -13070.9423828125, 134724.421875, -187500.015625, -137740.296875, -187500.015625, -187500.015625, -0.11600000411272049, -0.6580000519752502, 0.7420000433921814, 192.0, 0.0, 0.0, 0.0, 0.0, 0.0, 0.0, 0.0, 0.0, 0.0, 1.6137595317306716E9, 2021-02-19 16:32:11.730
214.0, -10256.74609375, 19897.634765625, -13169.4013671875, 134629.046875, -187500.015625, -137919.21875, -187500.015625, -187500.015625, -0.10200000554323196, -0.6640000343322754, 0.7480000257492065, 192.0, 252.0, 208.0, 235.0, 64.0, 23.0, 96.0, 0.0, 0.0, 0.0, 1.6137595317457244E9, 2021-02-19 16:32:11.745
215.0, -10050.5732421875, 19672.462890625, -13389.72265625, 134404.609375, -187500.015625, -136333.921875, -187500.015625, -187500.015625, -0.10200000554323196, -0.6640000343322754, 0.7480000257492065, 192.0, 0.0, 0.0, 0.0, 0.0, 0.0, 0.0, 0.0, 0.0, 0.0, 1.613759531750794E9, 2021-02-19 16:32:11.750
216.0, -10173.6640625, 19758.115234375, -13309.099609375, 134475.078125, -187500.015625, -135925.984375, -187500.015625, -187500.015625, -0.10200000554323196, -0.6640000343322754, 0.7480000257492065, 192.0, 0.0, 0.0, 0.0, 0.0, 0.0, 0.0, 0.0, 0.0, 0.0, 1.6137595317556856E9, 2021-02-19 16:32:11.755
226.0, -10384.2626953125, 19979.91015625, -13087.1025390625, 134692.875, -187500.015625, -138123.921875, -187500.015625, -187500.015625, -0.10200000554323196, -0.6640000343322754, 0.7480000257492065, 192.0, 0.0, 0.0, 0.0, 0.0, 0.0, 0.0, 0.0, 0.0, 0.0, 1.6137595317617755E9, 2021-02-19 16:32:11.761
229.0, -10351.025390625, 19814.373046875, -13253.5107421875, 134510.484375, -187500.015625, -136537.03125, -187500.015625, -187500.015625, -0.10200000554323196, -0.6640000343322754, 0.7480000257492065, 192.0, 0.0, 0.0, 0.0, 0.0, 0.0, 0.0, 0.0, 0.0, 0.0, 1.6137595317666993E9, 2021-02-19 16:32:11.766
223.0, -10086.3359375, 19772.21875, -13286.591796875, 134499.25, -187500.015625, -136919.046875, -187500.015625, -187500.015625, -0.10200000554323196, -0.6640000343322754, 0.7480000257492065, 192.0, 0.0, 0.0, 0.0, 0.0, 0.0, 0.0, 0.0, 0.0, 0.0, 1.6137595317728372E9, 2021-02-19 16:32:11.772
232.0, -10045.41015625, 19689.8515625, -13371.6396484375, 134398.78125, -187500.015625, -135924.78125, -187500.015625, -187500.015625, -0.10200000554323196, -0.6640000343322754, 0.7480000257492065, 192.0, 0.0, 0.0, 0.0, 0.0, 0.0, 0.0, 0.0, 0.0, 0.0, 1.6137595317768004E9, 2021-02-19 16:32:11.776
237.0, -10205.068359375, 19756.013671875, -13315.8720703125, 134450.046875, -187500.015625, -136008.796875, -187500.015625, -187500.015625, -0.10200000554323196, -0.6640000343322754, 0.7480000257492065, 192.0, 0.0, 0.0, 0.0, 0.0, 0.0, 0.0, 0.0, 0.0, 0.0, 1.613759531824802E9, 2021-02-19 16:32:11.824
230.0, -10452.078125, 19965.560546875, -13103.3525390625, 134666.4375, -187500.015625, -137996.734375, -187500.015625, -187500.015625, -0.10200000554323196, -0.6640000343322754, 0.7480000257492065, 192.0, 0.0, 0.0, 0.0, 0.0, 0.0, 0.0, 0.0, 0.0, 0.0, 1.6137595318287756E9, 2021-02-19 16:32:11.828
247.0, -10349.505859375, 19990.595703125, -13078.8095703125, 134685.265625, -187500.015625, -138097.984375, -187500.015625, -187500.015625, -0.10200000554323196, -0.6640000343322754, 0.7480000257492065, 192.0, 0.0, 0.0, 0.0, 0.0, 0.0, 0.0, 0.0, 0.0, 0.0, 1.6137595318317728E9, 2021-02-19 16:32:11.831
234.0, -10462.5380859375, 19920.1640625, -13151.9892578125, 134617.75, -187500.015625, -137809.984375, -187500.015625, -187500.015625, -0.10400000214576721, -0.6620000600814819, 0.7480000257492065, 192.0, 252.0, 192.0, 235.0, 80.0, 23.0, 96.0, 0.0, 0.0, 0.0, 1.6137595318347876E9, 2021-02-19 16:32:11.834
235.0, -10252.23046875, 19881.71875, -13186.947265625, 134586.515625, -187500.015625, -137684.78125, -187500.015625, -187500.015625, -0.10400000214576721, -0.6620000600814819, 0.7480000257492065, 192.0, 0.0, 0.0, 0.0, 0.0, 0.0, 0.0, 0.0, 0.0, 0.0, 1.613759531837984E9, 2021-02-19 16:32:11.837
238.0, -10445.998046875, 19967.505859375, -13107.6435546875, 134660.0, -187500.015625, -137592.84375, -187500.015625, -187500.015625, -0.10400000214576721, -0.6620000600814819, 0.7480000257492065, 192.0, 0.0, 0.0, 0.0, 0.0, 0.0, 0.0, 0.0, 0.0, 0.0, 1.6137595318419385E9, 2021-02-19 16:32:11.841
239.0, -10276.7060546875, 19906.396484375, -13165.2666015625, 134611.609375, -187500.015625, -137884.625, -187500.015625, -187500.015625, -0.10400000214576721, -0.6620000600814819, 0.7480000257492065, 192.0, 0.0, 0.0, 0.0, 0.0, 0.0, 0.0, 0.0, 0.0, 0.0, 1.6137595318448021E9, 2021-02-19 16:32:11.844
245.0, -10132.8056640625, 19679.50390625, -13384.7158203125, 134377.25, -187500.015625, -135624.140625, -187500.015625, -187500.015625, -0.10400000214576721, -0.6620000600814819, 0.7480000257492065, 192.0, 0.0, 0.0, 0.0, 0.0, 0.0, 0.0, 0.0, 0.0, 0.0, 1.6137595318528824E9, 2021-02-19 16:32:11.852
243.0, -10332.1826171875, 19947.857421875, -13121.2783203125, 134649.421875, -187500.015625, -137958.265625, -187500.015625, -187500.015625, -0.10400000214576721, -0.6620000600814819, 0.7480000257492065, 192.0, 0.0, 0.0, 0.0, 0.0, 0.0, 0.0, 0.0, 0.0, 0.0, 1.6137595318578093E9, 2021-02-19 16:32:11.857
248.0, -10074.556640625, 19843.341796875, -13222.173828125, 134542.671875, -187500.015625, -136951.34375, -187500.015625, -187500.015625, -0.10400000214576721, -0.6620000600814819, 0.7480000257492065, 192.0, 0.0, 0.0, 0.0, 0.0, 0.0, 0.0, 0.0, 0.0, 0.0, 1.613759531860836E9, 2021-02-19 16:32:11.860
249.0, -10000.2373046875, 19737.103515625, -13329.57421875, 134425.75, -187500.015625, -135755.546875, -187500.015625, -187500.015625, -0.10400000214576721, -0.6620000600814819, 0.7480000257492065, 192.0, 0.0, 0.0, 0.0, 0.0, 0.0, 0.0, 0.0, 0.0, 0.0, 1.6137595318708885E9, 2021-02-19 16:32:11.870
250.0, -10304.1318359375, 19930.78125, -13141.4619140625, 134609.171875, -187500.015625, -136755.484375, -187500.015625, -187500.015625, -0.10400000214576721, -0.6620000600814819, 0.7480000257492065, 192.0, 0.0, 0.0, 0.0, 0.0, 0.0, 0.0, 0.0, 0.0, 0.0, 1.613759531875873E9, 2021-02-19 16:32:11.875
251.0, -10341.458984375, 20030.4921875, -13044.7236328125, 134716.8125, -187500.015625, -138107.78125, -187500.015625, -187500.015625, -0.10400000214576721, -0.6620000600814819, 0.7480000257492065, 192.0, 0.0, 0.0, 0.0, 0.0, 0.0, 0.0, 0.0, 0.0, 0.0, 1.613759531880852E9, 2021-02-19 16:32:11.880
1.0, -9991.095703125, 19708.11328125, -13363.302734375, 134393.96875, -187500.015625, -135970.84375, -187500.015625, -187500.015625, -0.10400000214576721, -0.6620000600814819, 0.7480000257492065, 192.0, 0.0, 0.0, 0.0, 0.0, 0.0, 0.0, 0.0, 0.0, 0.0, 1.6137595318839097E9, 2021-02-19 16:32:11.883
253.0, -9985.5078125, 19681.447265625, -13386.8837890625, 134365.546875, -187500.015625, -135834.25, -187500.015625, -187500.015625, -0.10400000214576721, -0.6620000600814819, 0.7480000257492065, 192.0, 0.0, 0.0, 0.0, 0.0, 0.0, 0.0, 0.0, 0.0, 0.0, 1.6137595318868392E9, 2021-02-19 16:32:11.886
28.0, -10460.302734375, 19993.61328125, -13091.7958984375, 134660.203125, -187500.015625, -137568.703125, -187500.015625, -187500.015625, -0.10400000214576721, -0.6620000600814819, 0.7480000257492065, 192.0, 0.0, 0.0, 0.0, 0.0, 0.0, 0.0, 0.0, 0.0, 0.0, 1.613759531889871E9, 2021-02-19 16:32:11.889
26.0, -10000.5498046875, 19702.390625, -13373.4501953125, 134380.8125, -187500.015625, -135896.328125, -187500.015625, -187500.015625, -0.10400000214576721, -0.6620000600814819, 0.7480000257492065, 192.0, 0.0, 0.0, 0.0, 0.0, 0.0, 0.0, 0.0, 0.0, 0.0, 1.6137595319158885E9, 2021-02-19 16:32:11.915
2.0, -10203.0341796875, 19850.986328125, -13226.1298828125, 134524.703125, -187500.015625, -136207.609375, -187500.015625, -187500.015625, -0.10400000214576721, -0.6620000600814819, 0.7480000257492065, 192.0, 0.0, 0.0, 0.0, 0.0, 0.0, 0.0, 0.0, 0.0, 0.0, 1.6137595319359455E9, 2021-02-19 16:32:11.935
3.0, -10385.55859375, 20025.462890625, -13054.2451171875, 134698.640625, -187500.015625, -137815.234375, -187500.015625, -187500.015625, -0.10400000214576721, -0.6620000600814819, 0.7480000257492065, 192.0, 0.0, 0.0, 0.0, 0.0, 0.0, 0.0, 0.0, 0.0, 0.0, 1.6137595319430916E9, 2021-02-19 16:32:11.943
24.0, -10423.3779296875, 19994.171875, -13088.5107421875, 134658.484375, -187500.015625, -137774.734375, -187500.015625, -187500.015625, -0.10400000214576721, -0.6620000600814819, 0.7480000257492065, 192.0, 0.0, 0.0, 0.0, 0.0, 0.0, 0.0, 0.0, 0.0, 0.0, 1.6137595319480045E9, 2021-02-19 16:32:11.948
5.0, -9952.7392578125, 19745.732421875, -13323.4052734375, 134433.0625, -187500.015625, -136198.609375, -187500.015625, -187500.015625, -0.10400000214576721, -0.6620000600814819, 0.7480000257492065, 192.0, 0.0, 0.0, 0.0, 0.0, 0.0, 0.0, 0.0, 0.0, 0.0, 1.6137595319510386E9, 2021-02-19 16:32:11.951
22.0, -9970.6884765625, 19708.740234375, -13363.302734375, 134384.09375, -187500.015625, -135705.390625, -187500.015625, -187500.015625, -0.10400000214576721, -0.6620000600814819, 0.7480000257492065, 192.0, 0.0, 0.0, 0.0, 0.0, 0.0, 0.0, 0.0, 0.0, 0.0, 1.6137595319601142E9, 2021-02-19 16:32:11.960
9.0, -9964.0498046875, 19718.5078125, -13356.1953125, 134396.09375, -187500.015625, -136271.296875, -187500.015625, -187500.015625, -0.10400000214576721, -0.6620000600814819, 0.7480000257492065, 192.0, 0.0, 0.0, 0.0, 0.0, 0.0, 0.0, 0.0, 0.0, 0.0, 1.613759531971027E9, 2021-02-19 16:32:11.971
20.0, -10356.2783203125, 19990.416015625, -13091.3271484375, 134655.796875, -187500.015625, -137877.984375, -187500.015625, -187500.015625, -0.10400000214576721, -0.6620000600814819, 0.7480000257492065, 192.0, 0.0, 0.0, 0.0, 0.0, 0.0, 0.0, 0.0, 0.0, 0.0, 1.613759531976307E9, 2021-02-19 16:32:11.976
13.0, -9929.4716796875, 19772.419921875, -13305.9931640625, 134446.0, -187500.015625, -136561.515625, -187500.015625, -187500.015625, -0.10400000214576721, -0.6620000600814819, 0.7480000257492065, 192.0, 0.0, 0.0, 0.0, 0.0, 0.0, 0.0, 0.0, 0.0, 0.0, 1.6137595319870458E9, 2021-02-19 16:32:11.987
18.0, -9986.4462890625, 19708.806640625, -13362.4755859375, 134375.125, -187500.015625, -135577.78125, -187500.015625, -187500.015625, -0.10400000214576721, -0.6620000600814819, 0.7480000257492065, 192.0, 0.0, 0.0, 0.0, 0.0, 0.0, 0.0, 0.0, 0.0, 0.0, 1.6137595319911327E9, 2021-02-19 16:32:11.991
15.0, -10319.1962890625, 19920.0078125, -13167.1435546875, 134574.34375, -187500.015625, -136747.71875, -187500.015625, -187500.015625, -0.10400000214576721, -0.6620000600814819, 0.7480000257492065, 192.0, 0.0, 0.0, 0.0, 0.0, 0.0, 0.0, 0.0, 0.0, 0.0, 1.6137595319941196E9, 2021-02-19 16:32:11.994
16.0, -10300.890625, 20016.65625, -13069.064453125, 134677.953125, -187500.015625, -137893.984375, -187500.015625, -187500.015625, -0.10400000214576721, -0.6620000600814819, 0.7480000257492065, 192.0, 0.0, 0.0, 0.0, 0.0, 0.0, 0.0, 0.0, 0.0, 0.0, 1.6137595320050037E9, 2021-02-19 16:32:12.005
29.0, -10252.9013671875, 19940.50390625, -13138.578125, 134618.25, -187500.015625, -137669.078125, -187500.015625, -187500.015625, -0.10400000214576721, -0.6620000600814819, 0.7480000257492065, 192.0, 0.0, 0.0, 0.0, 0.0, 0.0, 0.0, 0.0, 0.0, 0.0, 1.6137595320200336E9, 2021-02-19 16:32:12.020
30.0, -10018.587890625, 19712.673828125, -13363.7275390625, 134392.1875, -187500.015625, -136087.96875, -187500.015625, -187500.015625, -0.10400000214576721, -0.6620000600814819, 0.7480000257492065, 192.0, 0.0, 0.0, 0.0, 0.0, 0.0, 0.0, 0.0, 0.0, 0.0, 1.6137595320240726E9, 2021-02-19 16:32:12.024
31.0, -10129.609375, 19777.716796875, -13305.5458984375, 134445.578125, -187500.015625, -135751.484375, -187500.015625, -187500.015625, -0.10400000214576721, -0.6620000600814819, 0.7480000257492065, 192.0, 0.0, 0.0, 0.0, 0.0, 0.0, 0.0, 0.0, 0.0, 0.0, 1.6137595320270116E9, 2021-02-19 16:32:12.027
32.0, -10424.71875, 19999.513671875, -13089.203125, 134663.265625, -187500.015625, -137185.140625, -187500.015625, -187500.015625, -0.10400000214576721, -0.6620000600814819, 0.7480000257492065, 192.0, 0.0, 0.0, 0.0, 0.0, 0.0, 0.0, 0.0, 0.0, 0.0, 1.6137595320370638E9, 2021-02-19 16:32:12.037
33.0, -10272.0791015625, 19991.220703125, -13093.2490234375, 134668.453125, -187500.015625, -137766.203125, -187500.015625, -187500.015625, -0.10400000214576721, -0.6620000600814819, 0.7480000257492065, 192.0, 0.0, 0.0, 0.0, 0.0, 0.0, 0.0, 0.0, 0.0, 0.0, 1.613759532052065E9, 2021-02-19 16:32:12.052
40.0, -10336.541015625, 19946.71875, -13140.4111328125, 134603.0, -187500.015625, -136709.25, -187500.015625, -187500.015625, -0.10400000214576721, -0.6620000600814819, 0.7480000257492065, 192.0, 0.0, 0.0, 0.0, 0.0, 0.0, 0.0, 0.0, 0.0, 0.0, 1.613759532058257E9, 2021-02-19 16:32:12.058
35.0, -10102.4736328125, 19716.875, -13364.912109375, 134387.46875, -187500.015625, -135470.59375, -187500.015625, -187500.015625, -0.10400000214576721, -0.6620000600814819, 0.7480000257492065, 192.0, 0.0, 0.0, 0.0, 0.0, 0.0, 0.0, 0.0, 0.0, 0.0, 1.6137595320611928E9, 2021-02-19 16:32:12.061
36.0, -10370.60546875, 19950.517578125, -13134.845703125, 134611.390625, -187500.015625, -137026.046875, -187500.015625, -187500.015625, -0.10400000214576721, -0.6620000600814819, 0.7480000257492065, 192.0, 0.0, 0.0, 0.0, 0.0, 0.0, 0.0, 0.0, 0.0, 0.0, 1.6137595320650775E9, 2021-02-19 16:32:12.065
37.0, -10305.1376953125, 19948.73046875, -13133.3701171875, 134616.296875, -187500.015625, -137916.734375, -187500.015625, -187500.015625, -0.11800000816583633, -0.656000018119812, 0.7380000352859497, 192.0, 252.0, 80.0, 235.0, 128.0, 23.0, 16.0, 0.0, 0.0, 0.0, 1.613759532068094E9, 2021-02-19 16:32:12.068
38.0, -10060.6767578125, 19757.310546875, -13320.3203125, 134432.53125, -187500.015625, -136619.15625, -187500.015625, -187500.015625, -0.11800000816583633, -0.656000018119812, 0.7380000352859497, 192.0, 0.0, 0.0, 0.0, 0.0, 0.0, 0.0, 0.0, 0.0, 0.0, 1.613759532071263E9, 2021-02-19 16:32:12.071
41.0, -10300.8232421875, 20047.345703125, -13038.8671875, 134712.171875, -187500.015625, -137951.359375, -187500.015625, -187500.015625, -0.11800000816583633, -0.656000018119812, 0.7380000352859497, 192.0, 0.0, 0.0, 0.0, 0.0, 0.0, 0.0, 0.0, 0.0, 0.0, 1.613759532081084E9, 2021-02-19 16:32:12.081
55.0, -9837.3154296875, 19689.830078125, -13380.669921875, 134363.171875, -187500.015625, -136747.984375, -187500.015625, -187500.015625, -0.11800000816583633, -0.656000018119812, 0.7380000352859497, 192.0, 0.0, 0.0, 0.0, 0.0, 0.0, 0.0, 0.0, 0.0, 0.0, 1.6137595320851169E9, 2021-02-19 16:32:12.085
43.0, -9937.8310546875, 19669.7578125, -13407.3359375, 134336.609375, -187500.015625, -135616.875, -187500.015625, -187500.015625, -0.11800000816583633, -0.656000018119812, 0.7380000352859497, 192.0, 0.0, 0.0, 0.0, 0.0, 0.0, 0.0, 0.0, 0.0, 0.0, 1.6137595320892644E9, 2021-02-19 16:32:12.089
48.0, -9936.7138671875, 19856.775390625, -13226.80078125, 134508.546875, -187500.015625, -136472.578125, -187500.015625, -187500.015625, -0.11800000816583633, -0.656000018119812, 0.7380000352859497, 192.0, 0.0, 0.0, 0.0, 0.0, 0.0, 0.0, 0.0, 0.0, 0.0, 1.613759532104246E9, 2021-02-19 16:32:12.104
58.0, -10155.5146484375, 19974.412109375, -13098.94921875, 134639.390625, -187500.015625, -138411.65625, -187500.015625, -187500.015625, -0.11800000816583633, -0.656000018119812, 0.7380000352859497, 192.0, 0.0, 0.0, 0.0, 0.0, 0.0, 0.0, 0.0, 0.0, 0.0, 1.6137595321582088E9, 2021-02-19 16:32:12.158
46.0, -10014.6767578125, 19872.66796875, -13207.623046875, 134540.90625, -187500.015625, -137429.703125, -187500.015625, -187500.015625, -0.11800000816583633, -0.656000018119812, 0.7380000352859497, 192.0, 0.0, 0.0, 0.0, 0.0, 0.0, 0.0, 0.0, 0.0, 0.0, 1.6137595321612856E9, 2021-02-19 16:32:12.161
51.0, -9669.1181640625, 19711.890625, -13365.3818359375, 134374.53125, -187500.015625, -136492.390625, -187500.015625, -187500.015625, -0.11800000816583633, -0.656000018119812, 0.7380000352859497, 192.0, 0.0, 0.0, 0.0, 0.0, 0.0, 0.0, 0.0, 0.0, 0.0, 1.6137595321652594E9, 2021-02-19 16:32:12.165
56.0, -9950.2138671875, 19757.845703125, -13314.3974609375, 134415.671875, -187500.015625, -136351.171875, -187500.015625, -187500.015625, -0.11800000816583633, -0.656000018119812, 0.7380000352859497, 192.0, 0.0, 0.0, 0.0, 0.0, 0.0, 0.0, 0.0, 0.0, 0.0, 1.6137595321854403E9, 2021-02-19 16:32:12.185
59.0, -9856.3369140625, 19777.470703125, -13290.1005859375, 134449.34375, -187500.015625, -137145.25, -187500.015625, -187500.015625, -0.11800000816583633, -0.656000018119812, 0.7380000352859497, 192.0, 0.0, 0.0, 0.0, 0.0, 0.0, 0.0, 0.0, 0.0, 0.0, 1.6137595322103128E9, 2021-02-19 16:32:12.210
64.0, -9919.32421875, 19668.953125, -13397.5009765625, 134332.171875, -187500.015625, -136252.140625, -187500.015625, -187500.015625, -0.11800000816583633, -0.656000018119812, 0.7380000352859497, 192.0, 0.0, 0.0, 0.0, 0.0, 0.0, 0.0, 0.0, 0.0, 0.0, 1.6137595323434868E9, 2021-02-19 16:32:12.343
61.0, -10259.31640625, 19913.056640625, -13162.0927734375, 134568.625, -187500.015625, -137601.84375, -187500.015625, -187500.015625, -0.11800000816583633, -0.656000018119812, 0.7380000352859497, 192.0, 0.0, 0.0, 0.0, 0.0, 0.0, 0.0, 0.0, 0.0, 0.0, 1.613759532408455E9, 2021-02-19 16:32:12.408
62.0, -10212.310546875, 20002.150390625, -13071.791015625, 134666.078125, -187500.015625, -138619.609375, -187500.015625, -187500.015625, -0.11800000816583633, -0.656000018119812, 0.7380000352859497, 192.0, 0.0, 0.0, 0.0, 0.0, 0.0, 0.0, 0.0, 0.0, 0.0, 1.6137595324154449E9, 2021-02-19 16:32:12.415
68.0, -9938.9482421875, 19628.09375, -13441.4892578125, 134284.875, -187500.015625, -136224.734375, -187500.015625, -187500.015625, -0.11800000816583633, -0.656000018119812, 0.7380000352859497, 192.0, 0.0, 0.0, 0.0, 0.0, 0.0, 0.0, 0.0, 0.0, 0.0, 1.6137595324605203E9, 2021-02-19 16:32:12.460
145.0, -10355.607421875, 20020.255859375, -13040.87890625, 134631.8125, -187500.015625, -138889.953125, -187500.015625, -187500.015625, -0.10400000214576721, -0.6580000519752502, 0.7540000081062317, 192.0, 252.0, 192.0, 235.0, 112.0, 23.0, 144.0, 0.0, 0.0, 0.0, 1.6137595324716325E9, 2021-02-19 16:32:12.471
143.0, -9955.8466796875, 19724.474609375, -13324.5673828125, 134348.3125, -187500.015625, -136821.734375, -187500.015625, -187500.015625, -0.10400000214576721, -0.6580000519752502, 0.7540000081062317, 192.0, 0.0, 0.0, 0.0, 0.0, 0.0, 0.0, 0.0, 0.0, 0.0, 1.61375953249655E9, 2021-02-19 16:32:12.496
110.0, -10000.3935546875, 19696.9375, -13367.2587890625, 134331.71875, -187500.015625, -136265.53125, -187500.015625, -187500.015625, -0.10400000214576721, -0.6580000519752502, 0.7540000081062317, 192.0, 0.0, 0.0, 0.0, 0.0, 0.0, 0.0, 0.0, 0.0, 0.0, 1.6137595324995492E9, 2021-02-19 16:32:12.499
141.0, -10362.4248046875, 20023.138671875, -13037.8837890625, 134636.75, -187500.015625, -138845.953125, -187500.015625, -187500.015625, -0.10400000214576721, -0.6580000519752502, 0.7540000081062317, 192.0, 0.0, 0.0, 0.0, 0.0, 0.0, 0.0, 0.0, 0.0, 0.0, 1.6137595325385947E9, 2021-02-19 16:32:12.538
74.0, -10365.330078125, 19986.2578125, -13090.611328125, 134633.890625, -187500.015625, -138272.25, -187500.015625, -187500.015625, -0.10400000214576721, -0.6580000519752502, 0.7540000081062317, 192.0, 0.0, 0.0, 0.0, 0.0, 0.0, 0.0, 0.0, 0.0, 0.0, 1.6137595325416043E9, 2021-02-19 16:32:12.541
139.0, -9960.9208984375, 19679.90625, -13372.466796875, 134303.53125, -187500.015625, -136485.15625, -187500.015625, -187500.015625, -0.10400000214576721, -0.6580000519752502, 0.7540000081062317, 192.0, 0.0, 0.0, 0.0, 0.0, 0.0, 0.0, 0.0, 0.0, 0.0, 1.6137595325506277E9, 2021-02-19 16:32:12.550
174.0, -10287.4345703125, 19806.23828125, -13251.5439453125, 134404.671875, -187500.015625, -136515.578125, -187500.015625, -187500.015625, -0.10400000214576721, -0.6580000519752502, 0.7540000081062317, 192.0, 0.0, 0.0, 0.0, 0.0, 0.0, 0.0, 0.0, 0.0, 0.0, 1.613759532554622E9, 2021-02-19 16:32:12.554
106.0, -10000.52734375, 19742.826171875, -13324.58984375, 134377.046875, -187500.015625, -136315.375, -187500.015625, -187500.015625, -0.11800000816583633, -0.6600000262260437, 0.7440000176429749, 192.0, 252.0, 80.0, 235.0, 96.0, 23.0, 64.0, 0.0, 0.0, 0.0, 1.6137595325587192E9, 2021-02-19 16:32:12.558
137.0, -10316.693359375, 20033.419921875, -13023.5341796875, 134657.28125, -187500.015625, -138698.6875, -187500.015625, -187500.015625, -0.11800000816583633, -0.6600000262260437, 0.7440000176429749, 192.0, 0.0, 0.0, 0.0, 0.0, 0.0, 0.0, 0.0, 0.0, 0.0, 1.613759532561648E9, 2021-02-19 16:32:12.561
172.0, -9923.1015625, 19555.541015625, -13491.6689453125, 134174.40625, -187500.015625, -135702.515625, -187500.015625, -187500.015625, -0.11800000816583633, -0.6600000262260437, 0.7440000176429749, 192.0, 0.0, 0.0, 0.0, 0.0, 0.0, 0.0, 0.0, 0.0, 0.0, 1.6137595325646365E9, 2021-02-19 16:32:12.564
170.0, -10369.5546875, 19837.240234375, -13214.7978515625, 134438.40625, -187500.015625, -137928.390625, -187500.015625, -187500.015625, -0.11800000816583633, -0.6600000262260437, 0.7440000176429749, 192.0, 0.0, 0.0, 0.0, 0.0, 0.0, 0.0, 0.0, 0.0, 0.0, 1.613759532568827E9, 2021-02-19 16:32:12.568
