%OpenBCI Raw EEG Data
%Number of channels = 8
%Sample Rate = 250 Hz
%Board = OpenBCI_GUI$BoardCytonSerial
Sample Index, EXG Channel 0, EXG Channel 1, EXG Channel 2, EXG Channel 3, EXG Channel 4, EXG Channel 5, EXG Channel 6, EXG Channel 7, Accel Channel 0, Accel Channel 1, Accel Channel 2, Other, Other, Other, Other, Other, Other, Other, Analog Channel 0, Analog Channel 1, Analog Channel 2, Timestamp, Timestamp (Formatted)
191.0, -15007.2958984375, 18650.5859375, -15192.2119140625, 137660.953125, -187500.015625, -141941.8125, -187500.015625, -187500.015625, 0.0, 0.0, 0.0, 192.0, 0.0, 0.0, 0.0, 0.0, 0.0, 0.0, 0.0, 0.0, 0.0, 1.6137590867268572E9, 2021-02-19 16:24:46.726
218.0, -15462.8017578125, 18675.57421875, -15179.650390625, 137614.140625, -187500.015625, -141316.828125, -187500.015625, -187500.015625, 0.0, 0.0, 0.0, 192.0, 0.0, 0.0, 0.0, 0.0, 0.0, 0.0, 0.0, 0.0, 0.0, 1.613759086726862E9, 2021-02-19 16:24:46.726
203.0, -15043.0361328125, 18784.16015625, -15073.0322265625, 137757.796875, -187500.015625, -143017.390625, -187500.015625, -187500.015625, 0.0, 0.0, 0.0, 192.0, 0.0, 0.0, 0.0, 0.0, 0.0, 0.0, 0.0, 0.0, 0.0, 1.613759086726866E9, 2021-02-19 16:24:46.726
207.0, -15107.119140625, 18796.474609375, -15060.8505859375, 137760.96875, -187500.015625, -143218.546875, -187500.015625, -187500.015625, 0.0, 0.0, 0.0, 192.0, 0.0, 0.0, 0.0, 0.0, 0.0, 0.0, 0.0, 0.0, 0.0, 1.61375908672687E9, 2021-02-19 16:24:46.726
205.0, -15356.005859375, 18605.501953125, -15247.0859375, 137591.078125, -187500.015625, -140356.703125, -187500.015625, -187500.015625, 0.0, 0.0, 0.0, 192.0, 0.0, 0.0, 0.0, 0.0, 0.0, 0.0, 0.0, 0.0, 0.0, 1.613759086726874E9, 2021-02-19 16:24:46.726
216.0, -15070.126953125, 18600.96484375, -15233.0263671875, 137583.609375, -187500.015625, -141932.65625, -187500.015625, -187500.015625, -0.10400000214576721, -0.6340000033378601, 0.7680000066757202, 192.0, 252.0, 192.0, 236.0, 48.0, 24.0, 0.0, 0.0, 0.0, 0.0, 1.6137590867268791E9, 2021-02-19 16:24:46.726
234.0, -15253.7236328125, 18558.361328125, -15303.76953125, 137519.8125, -187500.015625, -139985.3125, -187500.015625, -187500.015625, -0.10400000214576721, -0.6340000033378601, 0.7680000066757202, 192.0, 0.0, 0.0, 0.0, 0.0, 0.0, 0.0, 0.0, 0.0, 0.0, 1.6137590867268832E9, 2021-02-19 16:24:46.726
210.0, -15371.0927734375, 18821.599609375, -15040.779296875, 137809.8125, -187500.015625, -142278.34375, -187500.015625, -187500.015625, -0.10400000214576721, -0.6340000033378601, 0.7680000066757202, 192.0, 0.0, 0.0, 0.0, 0.0, 0.0, 0.0, 0.0, 0.0, 0.0, 1.6137590867268872E9, 2021-02-19 16:24:46.726
211.0, -15143.060546875, 18820.19140625, -15033.7607421875, 137805.78125, -187500.015625, -143408.71875, -187500.015625, -187500.015625, -0.10400000214576721, -0.6340000033378601, 0.7680000066757202, 192.0, 0.0, 0.0, 0.0, 0.0, 0.0, 0.0, 0.0, 0.0, 0.0, 1.6137590867268915E9, 2021-02-19 16:24:46.726
212.0, -15094.4453125, 18544.146484375, -15294.046875, 137533.359375, -187500.015625, -141543.796875, -187500.015625, -187500.015625, -0.10400000214576721, -0.6340000033378601, 0.7680000066757202, 192.0, 0.0, 0.0, 0.0, 0.0, 0.0, 0.0, 0.0, 0.0, 0.0, 1.613759086726905E9, 2021-02-19 16:24:46.726
232.0, -15098.625, 18807.205078125, -15048.0654296875, 137804.84375, -187500.015625, -143147.03125, -187500.015625, -187500.015625, -0.10400000214576721, -0.6340000033378601, 0.7680000066757202, 192.0, 0.0, 0.0, 0.0, 0.0, 0.0, 0.0, 0.0, 0.0, 0.0, 1.6137590867269099E9, 2021-02-19 16:24:46.726
223.0, -15284.8154296875, 18868.73828125, -14982.9326171875, 137842.828125, -187500.015625, -143088.953125, -187500.015625, -187500.015625, -0.10400000214576721, -0.6340000033378601, 0.7680000066757202, 192.0, 0.0, 0.0, 0.0, 0.0, 0.0, 0.0, 0.0, 0.0, 0.0, 1.613759086726915E9, 2021-02-19 16:24:46.726
245.0, -14996.09765625, 18750.1171875, -15106.1357421875, 137703.484375, -187500.015625, -142275.828125, -187500.015625, -187500.015625, -0.10400000214576721, -0.6340000033378601, 0.7680000066757202, 192.0, 0.0, 0.0, 0.0, 0.0, 0.0, 0.0, 0.0, 0.0, 0.0, 1.6137590867269197E9, 2021-02-19 16:24:46.726
230.0, -15328.5126953125, 18579.484375, -15290.2470703125, 137540.6875, -187500.015625, -140203.234375, -187500.015625, -187500.015625, -0.10400000214576721, -0.6340000033378601, 0.7680000066757202, 192.0, 0.0, 0.0, 0.0, 0.0, 0.0, 0.0, 0.0, 0.0, 0.0, 1.613759086726925E9, 2021-02-19 16:24:46.726
225.0, -15131.548828125, 18486.58984375, -15363.8291015625, 137450.328125, -187500.015625, -140415.3125, -187500.015625, -187500.015625, -0.10400000214576721, -0.6340000033378601, 0.7680000066757202, 192.0, 0.0, 0.0, 0.0, 0.0, 0.0, 0.0, 0.0, 0.0, 0.0, 1.61375908672693E9, 2021-02-19 16:24:46.726
228.0, -15079.2685546875, 18761.115234375, -15099.318359375, 137734.4375, -187500.015625, -142941.1875, -187500.015625, -187500.015625, -0.10400000214576721, -0.6340000033378601, 0.7680000066757202, 192.0, 0.0, 0.0, 0.0, 0.0, 0.0, 0.0, 0.0, 0.0, 0.0, 1.6137590867269351E9, 2021-02-19 16:24:46.726
243.0, -15407.9736328125, 18711.158203125, -15161.8583984375, 137640.9375, -187500.015625, -141023.5625, -187500.015625, -187500.015625, -0.10400000214576721, -0.6340000033378601, 0.7680000066757202, 192.0, 0.0, 0.0, 0.0, 0.0, 0.0, 0.0, 0.0, 0.0, 0.0, 1.61375908672694E9, 2021-02-19 16:24:46.726
241.0, -15028.1728515625, 18651.0546875, -15187.9873046875, 137624.890625, -187500.015625, -141905.5, -187500.015625, -187500.015625, -0.10400000214576721, -0.6340000033378601, 0.7680000066757202, 192.0, 0.0, 0.0, 0.0, 0.0, 0.0, 0.0, 0.0, 0.0, 0.0, 1.6137590867269464E9, 2021-02-19 16:24:46.726
237.0, -14903.94140625, 18760.310546875, -15106.0234375, 137669.4375, -187500.015625, -141504.734375, -187500.015625, -187500.015625, -0.10400000214576721, -0.6340000033378601, 0.7680000066757202, 192.0, 0.0, 0.0, 0.0, 0.0, 0.0, 0.0, 0.0, 0.0, 0.0, 1.6137590867269516E9, 2021-02-19 16:24:46.726
0.0, 0.0, 0.0, 0.0, 0.0, 0.0, 0.0, 0.0, 0.0, -0.10000000149011612, -0.6420000195503235, 0.7560000419616699, 192.0, 252.0, 224.0, 235.0, 240.0, 23.0, 160.0, 0.0, 0.0, 0.0, 1.613759086828681E9, 2021-02-19 16:24:46.828
239.0, -15381.330078125, 18789.8359375, -15072.294921875, 137735.109375, -187500.015625, -141503.84375, -187500.015625, -187500.015625, -0.10000000149011612, -0.6420000195503235, 0.7560000419616699, 192.0, 0.0, 0.0, 0.0, 0.0, 0.0, 0.0, 0.0, 0.0, 0.0, 1.6137590868315783E9, 2021-02-19 16:24:46.831
246.0, -15134.96875, 18502.236328125, -15349.412109375, 137440.0, -187500.015625, -140064.34375, -187500.015625, -187500.015625, -0.10600000619888306, -0.6380000114440918, 0.7620000243186951, 192.0, 252.0, 176.0, 236.0, 16.0, 23.0, 208.0, 0.0, 0.0, 0.0, 1.613759086836733E9, 2021-02-19 16:24:46.836
247.0, -15370.6455078125, 18708.54296875, -15146.4580078125, 137638.96875, -187500.015625, -140612.0625, -187500.015625, -187500.015625, -0.10600000619888306, -0.6380000114440918, 0.7620000243186951, 192.0, 0.0, 0.0, 0.0, 0.0, 0.0, 0.0, 0.0, 0.0, 0.0, 1.6137590868406444E9, 2021-02-19 16:24:46.840
0.0, -15323.662109375, 18916.01171875, -14953.40625, 137821.546875, -187500.015625, -142201.765625, -187500.015625, -187500.015625, -0.10600000619888306, -0.6380000114440918, 0.7620000243186951, 192.0, 0.0, 0.0, 0.0, 0.0, 0.0, 0.0, 0.0, 0.0, 0.0, 1.6137590868437016E9, 2021-02-19 16:24:46.843
254.0, -15081.8388671875, 18532.8359375, -15319.7958984375, 137489.359375, -187500.015625, -140597.46875, -187500.015625, -187500.015625, -0.10600000619888306, -0.6380000114440918, 0.7620000243186951, 192.0, 0.0, 0.0, 0.0, 0.0, 0.0, 0.0, 0.0, 0.0, 0.0, 1.6137590868626282E9, 2021-02-19 16:24:46.862
250.0, -15020.796875, 18609.5703125, -15259.9150390625, 137515.296875, -187500.015625, -140340.25, -187500.015625, -187500.015625, -0.10600000619888306, -0.6380000114440918, 0.7620000243186951, 192.0, 0.0, 0.0, 0.0, 0.0, 0.0, 0.0, 0.0, 0.0, 0.0, 1.6137590868666852E9, 2021-02-19 16:24:46.866
251.0, -15312.822265625, 18655.01171875, -15209.6015625, 137583.234375, -187500.015625, -140245.703125, -187500.015625, -187500.015625, -0.10600000619888306, -0.6380000114440918, 0.7620000243186951, 192.0, 0.0, 0.0, 0.0, 0.0, 0.0, 0.0, 0.0, 0.0, 0.0, 1.6137590868706613E9, 2021-02-19 16:24:46.870
252.0, -15303.0546875, 18897.70703125, -14965.6318359375, 137815.328125, -187500.015625, -142461.8125, -187500.015625, -187500.015625, -0.10600000619888306, -0.6380000114440918, 0.7620000243186951, 192.0, 0.0, 0.0, 0.0, 0.0, 0.0, 0.0, 0.0, 0.0, 0.0, 1.6137590868736951E9, 2021-02-19 16:24:46.873
1.0, -15209.310546875, 19698.681640625, -14750.18359375, 135386.953125, -187500.015625, -7026.80712890625, -187500.015625, -187500.015625, -0.10600000619888306, -0.6380000114440918, 0.7620000243186951, 192.0, 0.0, 0.0, 0.0, 0.0, 0.0, 0.0, 0.0, 0.0, 0.0, 1.613759086877668E9, 2021-02-19 16:24:46.877
2.0, -15009.173828125, 19715.400390625, -14729.9775390625, 135411.78125, -187500.015625, -7516.82421875, -187500.015625, -187500.015625, -0.10600000619888306, -0.6380000114440918, 0.7620000243186951, 192.0, 0.0, 0.0, 0.0, 0.0, 0.0, 0.0, 0.0, 0.0, 0.0, 1.6137590868813632E9, 2021-02-19 16:24:46.881
3.0, -14973.2314453125, 19484.640625, -14954.1884765625, 135184.859375, -187500.015625, -5332.47802734375, -187500.015625, -187500.015625, -0.10600000619888306, -0.6380000114440918, 0.7620000243186951, 192.0, 0.0, 0.0, 0.0, 0.0, 0.0, 0.0, 0.0, 0.0, 0.0, 1.6137590868836315E9, 2021-02-19 16:24:46.883
4.0, -15131.9296875, 19437.0546875, -15004.1220703125, 135129.25, -187500.015625, -3630.19140625, -187500.015625, -187500.015625, -0.10600000619888306, -0.6380000114440918, 0.7620000243186951, 192.0, 0.0, 0.0, 0.0, 0.0, 0.0, 0.0, 0.0, 0.0, 0.0, 1.613759086887695E9, 2021-02-19 16:24:46.887
5.0, -15195.1396484375, 19689.404296875, -14759.4375, 135375.390625, -187500.015625, -4746.77294921875, -187500.015625, -187500.015625, -0.10600000619888306, -0.6380000114440918, 0.7620000243186951, 192.0, 0.0, 0.0, 0.0, 0.0, 0.0, 0.0, 0.0, 0.0, 0.0, 1.613759086890706E9, 2021-02-19 16:24:46.890
6.0, -14980.451171875, 19768.3515625, -14678.6357421875, 135458.78125, -187500.015625, -5699.76171875, -187500.015625, -187500.015625, -0.10600000619888306, -0.6380000114440918, 0.7620000243186951, 192.0, 0.0, 0.0, 0.0, 0.0, 0.0, 0.0, 0.0, 0.0, 0.0, 1.6137590868946788E9, 2021-02-19 16:24:46.894
7.0, -14874.8623046875, 19591.90625, -14850.7666015625, 135287.34375, -187500.015625, -3892.690185546875, -187500.015625, -187500.015625, -0.10600000619888306, -0.6380000114440918, 0.7620000243186951, 192.0, 0.0, 0.0, 0.0, 0.0, 0.0, 0.0, 0.0, 0.0, 0.0, 1.613759086897688E9, 2021-02-19 16:24:46.897
8.0, -15015.0966796875, 19454.353515625, -14989.146484375, 135144.875, -187500.015625, -1810.848876953125, -187500.015625, -187500.015625, -0.10000000149011612, -0.6460000276565552, 0.7600000500679016, 192.0, 252.0, 224.0, 235.0, 208.0, 23.0, 192.0, 0.0, 0.0, 0.0, 1.613759086900665E9, 2021-02-19 16:24:46.900
9.0, -15129.2021484375, 19696.357421875, -14754.69921875, 135376.328125, -187500.015625, -2508.513916015625, -187500.015625, -187500.015625, -0.10000000149011612, -0.6460000276565552, 0.7600000500679016, 192.0, 0.0, 0.0, 0.0, 0.0, 0.0, 0.0, 0.0, 0.0, 0.0, 1.6137590869046926E9, 2021-02-19 16:24:46.904
10.0, -14924.6396484375, 19802.75, -14647.388671875, 135490.1875, -187500.015625, -3755.472900390625, -187500.015625, -187500.015625, -0.10000000149011612, -0.6460000276565552, 0.7600000500679016, 192.0, 0.0, 0.0, 0.0, 0.0, 0.0, 0.0, 0.0, 0.0, 0.0, 1.6137590869078417E9, 2021-02-19 16:24:46.907
11.0, -14796.7197265625, 19599.08203125, -14844.44140625, 135292.71875, -187500.015625, -2291.634765625, -187500.015625, -187500.015625, -0.10000000149011612, -0.6460000276565552, 0.7600000500679016, 192.0, 0.0, 0.0, 0.0, 0.0, 0.0, 0.0, 0.0, 0.0, 0.0, 1.613759086911657E9, 2021-02-19 16:24:46.911
12.0, -14945.8505859375, 19424.4921875, -15015.6552734375, 135115.859375, -187500.015625, 116.13966369628906, -187500.015625, -187500.015625, -0.10000000149011612, -0.6460000276565552, 0.7600000500679016, 192.0, 0.0, 0.0, 0.0, 0.0, 0.0, 0.0, 0.0, 0.0, 0.0, 1.6137590869147537E9, 2021-02-19 16:24:46.914
13.0, -15126.54296875, 19565.240234375, -14880.830078125, 135244.921875, -187500.015625, -68.66455841064453, -187500.015625, -187500.015625, -0.10000000149011612, -0.6460000276565552, 0.7600000500679016, 192.0, 0.0, 0.0, 0.0, 0.0, 0.0, 0.0, 0.0, 0.0, 0.0, 1.6137590869186764E9, 2021-02-19 16:24:46.918
14.0, -14954.4345703125, 19737.21484375, -14711.6943359375, 135420.671875, -187500.015625, -1502.506591796875, -187500.015625, -187500.015625, -0.10000000149011612, -0.6460000276565552, 0.7600000500679016, 192.0, 0.0, 0.0, 0.0, 0.0, 0.0, 0.0, 0.0, 0.0, 0.0, 1.6137590869217548E9, 2021-02-19 16:24:46.921
15.0, -14747.9482421875, 19579.5234375, -14864.826171875, 135272.28125, -187500.015625, -494.01824951171875, -187500.015625, -187500.015625, -0.10000000149011612, -0.6460000276565552, 0.7600000500679016, 192.0, 0.0, 0.0, 0.0, 0.0, 0.0, 0.0, 0.0, 0.0, 0.0, 1.6137590869256918E9, 2021-02-19 16:24:46.925
16.0, -14759.9072265625, 19406.185546875, -15036.7783203125, 135096.6875, -187500.015625, 2079.628662109375, -187500.015625, -187500.015625, -0.10000000149011612, -0.6460000276565552, 0.7600000500679016, 192.0, 0.0, 0.0, 0.0, 0.0, 0.0, 0.0, 0.0, 0.0, 0.0, 1.6137590869289205E9, 2021-02-19 16:24:46.928
17.0, -14969.4541015625, 19541.615234375, -14905.3046875, 135218.125, -187500.015625, 2429.656982421875, -187500.015625, -187500.015625, -0.09600000083446503, -0.6460000276565552, 0.7520000338554382, 192.0, 253.0, 0.0, 235.0, 208.0, 23.0, 128.0, 0.0, 0.0, 0.0, 1.6137590869317837E9, 2021-02-19 16:24:46.931
18.0, -14874.3251953125, 19764.775390625, -14681.765625, 135439.3125, -187500.015625, 865.4371337890625, -187500.015625, -187500.015625, -0.09600000083446503, -0.6460000276565552, 0.7520000338554382, 192.0, 0.0, 0.0, 0.0, 0.0, 0.0, 0.0, 0.0, 0.0, 0.0, 1.6137590869357283E9, 2021-02-19 16:24:46.935
19.0, -14621.3037109375, 19692.400390625, -14745.490234375, 135372.78125, -187500.015625, 1296.9822998046875, -187500.015625, -187500.015625, -0.09600000083446503, -0.6460000276565552, 0.7520000338554382, 192.0, 0.0, 0.0, 0.0, 0.0, 0.0, 0.0, 0.0, 0.0, 0.0, 1.6137590869387488E9, 2021-02-19 16:24:46.938
20.0, -14637.1953125, 19430.7734375, -15001.775390625, 135112.84375, -187500.015625, 3892.220947265625, -187500.015625, -187500.015625, -0.09600000083446503, -0.6460000276565552, 0.7520000338554382, 192.0, 0.0, 0.0, 0.0, 0.0, 0.0, 0.0, 0.0, 0.0, 0.0, 1.6137590869417832E9, 2021-02-19 16:24:46.941
21.0, -14848.9111328125, 19454.30859375, -14984.318359375, 135124.40625, -187500.015625, 4829.5634765625, -187500.015625, -187500.015625, -0.09600000083446503, -0.6460000276565552, 0.7520000338554382, 192.0, 0.0, 0.0, 0.0, 0.0, 0.0, 0.0, 0.0, 0.0, 0.0, 1.6137590869448617E9, 2021-02-19 16:24:46.944
22.0, -14785.4326171875, 19684.48828125, -14757.8955078125, 135353.796875, -187500.015625, 3369.9052734375, -187500.015625, -187500.015625, -0.09600000083446503, -0.6460000276565552, 0.7520000338554382, 192.0, 0.0, 0.0, 0.0, 0.0, 0.0, 0.0, 0.0, 0.0, 0.0, 1.6137590869487796E9, 2021-02-19 16:24:46.948
23.0, -14481.3818359375, 19647.62890625, -14793.255859375, 135328.28125, -187500.015625, 3332.64501953125, -187500.015625, -187500.015625, -0.09600000083446503, -0.6460000276565552, 0.7520000338554382, 192.0, 0.0, 0.0, 0.0, 0.0, 0.0, 0.0, 0.0, 0.0, 0.0, 1.6137590869517467E9, 2021-02-19 16:24:46.951
24.0, -14463.0537109375, 19394.51953125, -15043.6396484375, 135078.5, -187500.015625, 5849.09375, -187500.015625, -187500.015625, -0.09600000083446503, -0.6460000276565552, 0.7520000338554382, 192.0, 0.0, 0.0, 0.0, 0.0, 0.0, 0.0, 0.0, 0.0, 0.0, 1.6137590869547467E9, 2021-02-19 16:24:46.954
25.0, -14622.98046875, 19401.849609375, -15038.4091796875, 135077.46875, -187500.015625, 7388.83837890625, -187500.015625, -187500.015625, -0.09600000083446503, -0.6460000276565552, 0.7520000338554382, 192.0, 0.0, 0.0, 0.0, 0.0, 0.0, 0.0, 0.0, 0.0, 0.0, 1.6137590869588208E9, 2021-02-19 16:24:46.958
26.0, -14569.4033203125, 19658.560546875, -14785.90234375, 135329.21875, -187500.015625, 6226.21240234375, -187500.015625, -187500.015625, -0.09600000083446503, -0.6460000276565552, 0.7520000338554382, 192.0, 0.0, 0.0, 0.0, 0.0, 0.0, 0.0, 0.0, 0.0, 0.0, 1.6137590869618626E9, 2021-02-19 16:24:46.961
27.0, -14262.513671875, 19666.427734375, -14775.3740234375, 135345.015625, -187500.015625, 5836.0849609375, -187500.015625, -187500.015625, -0.09400000423192978, -0.6480000019073486, 0.7560000419616699, 192.0, 253.0, 16.0, 235.0, 192.0, 23.0, 160.0, 0.0, 0.0, 0.0, 1.6137590869648786E9, 2021-02-19 16:24:46.964
28.0, -14149.525390625, 19436.94140625, -15002.4677734375, 135118.734375, -187500.015625, 8291.87109375, -187500.015625, -187500.015625, -0.09400000423192978, -0.6480000019073486, 0.7560000419616699, 192.0, 0.0, 0.0, 0.0, 0.0, 0.0, 0.0, 0.0, 0.0, 0.0, 1.6137590869688275E9, 2021-02-19 16:24:46.968
29.0, -14218.435546875, 19373.12890625, -15069.7021484375, 135046.734375, -187500.015625, 10540.9931640625, -187500.015625, -187500.015625, -0.09400000423192978, -0.6480000019073486, 0.7560000419616699, 192.0, 0.0, 0.0, 0.0, 0.0, 0.0, 0.0, 0.0, 0.0, 0.0, 1.6137590869717917E9, 2021-02-19 16:24:46.971
30.0, -14274.44921875, 19530.619140625, -14917.173828125, 135195.0625, -187500.015625, 9961.3896484375, -187500.015625, -187500.015625, -0.09400000423192978, -0.6480000019073486, 0.7560000419616699, 192.0, 0.0, 0.0, 0.0, 0.0, 0.0, 0.0, 0.0, 0.0, 0.0, 1.6137590869748747E9, 2021-02-19 16:24:46.974
31.0, -14106.095703125, 19573.041015625, -14873.2080078125, 135244.546875, -187500.015625, 9293.9443359375, -187500.015625, -187500.015625, -0.09400000423192978, -0.6480000019073486, 0.7560000419616699, 192.0, 0.0, 0.0, 0.0, 0.0, 0.0, 0.0, 0.0, 0.0, 0.0, 1.6137590869787855E9, 2021-02-19 16:24:46.978
32.0, -14013.3583984375, 19380.83984375, -15062.794921875, 135058.53125, -187500.015625, 11355.646484375, -187500.015625, -187500.015625, -0.09400000423192978, -0.6480000019073486, 0.7560000419616699, 192.0, 0.0, 0.0, 0.0, 0.0, 0.0, 0.0, 0.0, 0.0, 0.0, 1.61375908698183E9, 2021-02-19 16:24:46.981
33.0, -14122.30078125, 19283.900390625, -15159.421875, 134957.609375, -187500.015625, 13717.1533203125, -187500.015625, -187500.015625, -0.09400000423192978, -0.6480000019073486, 0.7560000419616699, 192.0, 0.0, 0.0, 0.0, 0.0, 0.0, 0.0, 0.0, 0.0, 0.0, 1.6137590869848764E9, 2021-02-19 16:24:46.984
34.0, -14238.7763671875, 19498.6328125, -14948.533203125, 135163.9375, -187500.015625, 13118.998046875, -187500.015625, -187500.015625, -0.09400000423192978, -0.6480000019073486, 0.7560000419616699, 192.0, 0.0, 0.0, 0.0, 0.0, 0.0, 0.0, 0.0, 0.0, 0.0, 1.6137590869888332E9, 2021-02-19 16:24:46.988
35.0, -14030.501953125, 19698.099609375, -14748.41796875, 135367.171875, -187500.015625, 11717.0302734375, -187500.015625, -187500.015625, -0.09400000423192978, -0.6480000019073486, 0.7560000419616699, 192.0, 0.0, 0.0, 0.0, 0.0, 0.0, 0.0, 0.0, 0.0, 0.0, 1.6137590869919214E9, 2021-02-19 16:24:46.991
36.0, -13817.982421875, 19529.232421875, -14912.859375, 135205.09375, -187500.015625, 12695.365234375, -187500.015625, -187500.015625, -0.09400000423192978, -0.6480000019073486, 0.7560000419616699, 192.0, 0.0, 0.0, 0.0, 0.0, 0.0, 0.0, 0.0, 0.0, 0.0, 1.6137590869948013E9, 2021-02-19 16:24:46.994
37.0, -13986.0224609375, 19380.90625, -15061.5439453125, 135052.140625, -187500.015625, 14755.0341796875, -187500.015625, -187500.015625, -0.09800000488758087, -0.6460000276565552, 0.7580000162124634, 192.0, 252.0, 240.0, 235.0, 208.0, 23.0, 176.0, 0.0, 0.0, 0.0, 1.6137590869988809E9, 2021-02-19 16:24:46.998
38.0, -14226.3037109375, 19582.541015625, -14865.8544921875, 135240.203125, -187500.015625, 14337.5703125, -187500.015625, -187500.015625, -0.09800000488758087, -0.6460000276565552, 0.7580000162124634, 192.0, 0.0, 0.0, 0.0, 0.0, 0.0, 0.0, 0.0, 0.0, 0.0, 1.6137590870018408E9, 2021-02-19 16:24:47.001
39.0, -14118.7919921875, 19810.8203125, -14637.6201171875, 135470.75, -187500.015625, 12236.7529296875, -187500.015625, -187500.015625, -0.09800000488758087, -0.6460000276565552, 0.7580000162124634, 192.0, 0.0, 0.0, 0.0, 0.0, 0.0, 0.0, 0.0, 0.0, 0.0, 1.6137590870060184E9, 2021-02-19 16:24:47.006
40.0, -13945.0517578125, 19719.55859375, -14725.0380859375, 135386.1875, -187500.015625, 12404.3232421875, -187500.015625, -187500.015625, -0.09800000488758087, -0.6460000276565552, 0.7580000162124634, 192.0, 0.0, 0.0, 0.0, 0.0, 0.0, 0.0, 0.0, 0.0, 0.0, 1.6137590870088167E9, 2021-02-19 16:24:47.008
41.0, -13986.201171875, 19575.791015625, -14865.2734375, 135244.328125, -187500.015625, 14234.126953125, -187500.015625, -187500.015625, -0.09800000488758087, -0.6460000276565552, 0.7580000162124634, 192.0, 0.0, 0.0, 0.0, 0.0, 0.0, 0.0, 0.0, 0.0, 0.0, 1.6137590870118008E9, 2021-02-19 16:24:47.011
42.0, -14194.720703125, 19649.283203125, -14796.18359375, 135308.265625, -187500.015625, 13986.89453125, -187500.015625, -187500.015625, -0.09800000488758087, -0.6460000276565552, 0.7580000162124634, 192.0, 0.0, 0.0, 0.0, 0.0, 0.0, 0.0, 0.0, 0.0, 0.0, 1.6137590870158906E9, 2021-02-19 16:24:47.015
43.0, -14133.923828125, 19894.416015625, -14552.3486328125, 135553.515625, -187500.015625, 11653.1484375, -187500.015625, -187500.015625, -0.09800000488758087, -0.6460000276565552, 0.7580000162124634, 192.0, 0.0, 0.0, 0.0, 0.0, 0.0, 0.0, 0.0, 0.0, 0.0, 1.6137590870258117E9, 2021-02-19 16:24:47.025
44.0, -13868.162109375, 19888.3359375, -14552.974609375, 135556.640625, -187500.015625, 11151.888671875, -187500.015625, -187500.015625, -0.09800000488758087, -0.6460000276565552, 0.7580000162124634, 192.0, 0.0, 0.0, 0.0, 0.0, 0.0, 0.0, 0.0, 0.0, 0.0, 1.6137590870298262E9, 2021-02-19 16:24:47.029
45.0, -13860.71875, 19643.583984375, -14793.8369140625, 135315.25, -187500.015625, 12965.6650390625, -187500.015625, -187500.015625, -0.09800000488758087, -0.6460000276565552, 0.7580000162124634, 192.0, 0.0, 0.0, 0.0, 0.0, 0.0, 0.0, 0.0, 0.0, 0.0, 1.613759087077027E9, 2021-02-19 16:24:47.077
46.0, -14049.568359375, 19695.484375, -14745.4677734375, 135356.140625, -187500.015625, 13369.0029296875, -187500.015625, -187500.015625, -0.09800000488758087, -0.6460000276565552, 0.7580000162124634, 192.0, 0.0, 0.0, 0.0, 0.0, 0.0, 0.0, 0.0, 0.0, 0.0, 1.6137590870801272E9, 2021-02-19 16:24:47.080
47.0, -14025.9423828125, 19938.849609375, -14508.181640625, 135591.734375, -187500.015625, 11286.9375, -187500.015625, -187500.015625, -0.09400000423192978, -0.6440000534057617, 0.7660000324249268, 192.0, 253.0, 16.0, 235.0, 224.0, 23.0, 240.0, 0.0, 0.0, 0.0, 1.6137590870829084E9, 2021-02-19 16:24:47.082
48.0, -13773.14453125, 19953.826171875, -14490.0986328125, 135612.125, -187500.015625, 10460.2587890625, -187500.015625, -187500.015625, -0.09400000423192978, -0.6440000534057617, 0.7660000324249268, 192.0, 0.0, 0.0, 0.0, 0.0, 0.0, 0.0, 0.0, 0.0, 0.0, 1.6137590870859027E9, 2021-02-19 16:24:47.085
49.0, -13707.3857421875, 19735.44921875, -14703.4462890625, 135397.046875, -187500.015625, 12327.5009765625, -187500.015625, -187500.015625, -0.09400000423192978, -0.6440000534057617, 0.7660000324249268, 192.0, 0.0, 0.0, 0.0, 0.0, 0.0, 0.0, 0.0, 0.0, 0.0, 1.6137590870899327E9, 2021-02-19 16:24:47.089
50.0, -13894.1787109375, 19669.66796875, -14771.3505859375, 135322.890625, -187500.015625, 13502.8447265625, -187500.015625, -187500.015625, -0.09400000423192978, -0.6440000534057617, 0.7660000324249268, 192.0, 0.0, 0.0, 0.0, 0.0, 0.0, 0.0, 0.0, 0.0, 0.0, 1.6137590870941057E9, 2021-02-19 16:24:47.094
51.0, -13956.5849609375, 19859.279296875, -14588.2451171875, 135506.84375, -187500.015625, 11967.97265625, -187500.015625, -187500.015625, -0.09400000423192978, -0.6440000534057617, 0.7660000324249268, 192.0, 0.0, 0.0, 0.0, 0.0, 0.0, 0.0, 0.0, 0.0, 0.0, 1.6137590870969408E9, 2021-02-19 16:24:47.096
52.0, -13780.587890625, 19868.7109375, -14577.1591796875, 135523.96875, -187500.015625, 11000.65625, -187500.015625, -187500.015625, -0.09400000423192978, -0.6440000534057617, 0.7660000324249268, 192.0, 0.0, 0.0, 0.0, 0.0, 0.0, 0.0, 0.0, 0.0, 0.0, 1.6137590871099467E9, 2021-02-19 16:24:47.109
53.0, -13735.2802734375, 19615.533203125, -14823.9443359375, 135275.59375, -187500.015625, 12934.775390625, -187500.015625, -187500.015625, -0.09400000423192978, -0.6440000534057617, 0.7660000324249268, 192.0, 0.0, 0.0, 0.0, 0.0, 0.0, 0.0, 0.0, 0.0, 0.0, 1.6137590871129842E9, 2021-02-19 16:24:47.112
54.0, -13908.4169921875, 19509.96484375, -14925.5107421875, 135162.828125, -187500.015625, 14898.80078125, -187500.015625, -187500.015625, -0.09400000423192978, -0.6440000534057617, 0.7660000324249268, 192.0, 0.0, 0.0, 0.0, 0.0, 0.0, 0.0, 0.0, 0.0, 0.0, 1.61375908711695E9, 2021-02-19 16:24:47.116
55.0, -14035.419921875, 19691.685546875, -14748.865234375, 135336.140625, -187500.015625, 14063.44921875, -187500.015625, -187500.015625, -0.09400000423192978, -0.6440000534057617, 0.7660000324249268, 192.0, 0.0, 0.0, 0.0, 0.0, 0.0, 0.0, 0.0, 0.0, 0.0, 1.6137590871199813E9, 2021-02-19 16:24:47.119
56.0, -13852.4931640625, 19800.806640625, -14642.9853515625, 135449.359375, -187500.015625, 13022.7294921875, -187500.015625, -187500.015625, -0.09400000423192978, -0.6440000534057617, 0.7660000324249268, 192.0, 0.0, 0.0, 0.0, 0.0, 0.0, 0.0, 0.0, 0.0, 0.0, 1.6137590871230564E9, 2021-02-19 16:24:47.123
57.0, -13773.9716796875, 19596.533203125, -14844.150390625, 135248.8125, -187500.015625, 14838.607421875, -187500.015625, -187500.015625, -0.10000000149011612, -0.6460000276565552, 0.7620000243186951, 192.0, 252.0, 224.0, 235.0, 208.0, 23.0, 208.0, 0.0, 0.0, 0.0, 1.6137590871269567E9, 2021-02-19 16:24:47.126
58.0, -13909.7802734375, 19401.0234375, -15035.8388671875, 135050.15625, -187500.015625, 17379.330078125, -187500.015625, -187500.015625, -0.10000000149011612, -0.6460000276565552, 0.7620000243186951, 192.0, 0.0, 0.0, 0.0, 0.0, 0.0, 0.0, 0.0, 0.0, 0.0, 1.613759087130074E9, 2021-02-19 16:24:47.130
59.0, -14054.3515625, 19550.890625, -14892.162109375, 135189.21875, -187500.015625, 17232.478515625, -187500.015625, -187500.015625, -0.10000000149011612, -0.6460000276565552, 0.7620000243186951, 192.0, 0.0, 0.0, 0.0, 0.0, 0.0, 0.0, 0.0, 0.0, 0.0, 1.613759087133005E9, 2021-02-19 16:24:47.133
60.0, -13912.8876953125, 19676.375, -14769.49609375, 135318.421875, -187500.015625, 16142.048828125, -187500.015625, -187500.015625, -0.10000000149011612, -0.6460000276565552, 0.7620000243186951, 192.0, 0.0, 0.0, 0.0, 0.0, 0.0, 0.0, 0.0, 0.0, 0.0, 1.6137590871360137E9, 2021-02-19 16:24:47.136
61.0, -13782.95703125, 19467.609375, -14975.400390625, 135117.609375, -187500.015625, 17698.400390625, -187500.015625, -187500.015625, -0.10000000149011612, -0.6460000276565552, 0.7620000243186951, 192.0, 0.0, 0.0, 0.0, 0.0, 0.0, 0.0, 0.0, 0.0, 0.0, 1.6137590871399703E9, 2021-02-19 16:24:47.139
62.0, -13888.0546875, 19284.279296875, -15159.421875, 134929.15625, -187500.015625, 20579.65234375, -187500.015625, -187500.015625, -0.10000000149011612, -0.6460000276565552, 0.7620000243186951, 192.0, 0.0, 0.0, 0.0, 0.0, 0.0, 0.0, 0.0, 0.0, 0.0, 1.6137590871430044E9, 2021-02-19 16:24:47.143
63.0, -14030.8603515625, 19482.29296875, -14966.705078125, 135114.75, -187500.015625, 21037.103515625, -187500.015625, -187500.015625, -0.10000000149011612, -0.6460000276565552, 0.7620000243186951, 192.0, 0.0, 0.0, 0.0, 0.0, 0.0, 0.0, 0.0, 0.0, 0.0, 1.6137590871470778E9, 2021-02-19 16:24:47.147
64.0, -13907.1435546875, 19657.486328125, -14792.294921875, 135294.484375, -187500.015625, 19888.044921875, -187500.015625, -187500.015625, -0.10000000149011612, -0.6460000276565552, 0.7620000243186951, 192.0, 0.0, 0.0, 0.0, 0.0, 0.0, 0.0, 0.0, 0.0, 0.0, 1.613759087150097E9, 2021-02-19 16:24:47.150
65.0, -13765.1201171875, 19478.515625, -14967.15234375, 135123.234375, -187500.015625, 21010.4375, -187500.015625, -187500.015625, -0.10000000149011612, -0.6460000276565552, 0.7620000243186951, 192.0, 0.0, 0.0, 0.0, 0.0, 0.0, 0.0, 0.0, 0.0, 0.0, 1.613759087153104E9, 2021-02-19 16:24:47.153
66.0, -13841.6298828125, 19255.826171875, -15185.640625, 134898.265625, -187500.015625, 24063.328125, -187500.015625, -187500.015625, -0.10000000149011612, -0.6460000276565552, 0.7620000243186951, 192.0, 0.0, 0.0, 0.0, 0.0, 0.0, 0.0, 0.0, 0.0, 0.0, 1.6137590871670215E9, 2021-02-19 16:24:47.167
67.0, -14043.466796875, 19322.880859375, -15122.876953125, 134952.921875, -187500.015625, 25220.8359375, -187500.015625, -187500.015625, -0.09800000488758087, -0.6500000357627869, 0.7480000257492065, 192.0, 252.0, 240.0, 235.0, 176.0, 23.0, 96.0, 0.0, 0.0, 0.0, 1.613759087178219E9, 2021-02-19 16:24:47.178
68.0, -13991.4541015625, 19551.830078125, -14895.6044921875, 135178.609375, -187500.015625, 24194.15234375, -187500.015625, -187500.015625, -0.09800000488758087, -0.6500000357627869, 0.7480000257492065, 192.0, 0.0, 0.0, 0.0, 0.0, 0.0, 0.0, 0.0, 0.0, 0.0, 1.6137590872321663E9, 2021-02-19 16:24:47.232
69.0, -13775.357421875, 19460.544921875, -14983.9833984375, 135095.96875, -187500.015625, 24872.931640625, -187500.015625, -187500.015625, -0.09800000488758087, -0.6500000357627869, 0.7480000257492065, 192.0, 0.0, 0.0, 0.0, 0.0, 0.0, 0.0, 0.0, 0.0, 0.0, 1.6137590872360802E9, 2021-02-19 16:24:47.236
70.0, -13787.1142578125, 19212.306640625, -15230.3662109375, 134846.734375, -187500.015625, 27982.818359375, -187500.015625, -187500.015625, -0.09800000488758087, -0.6500000357627869, 0.7480000257492065, 192.0, 0.0, 0.0, 0.0, 0.0, 0.0, 0.0, 0.0, 0.0, 0.0, 1.613759087239146E9, 2021-02-19 16:24:47.239
71.0, -13949.298828125, 19278.37890625, -15166.9990234375, 134902.078125, -187500.015625, 29801.2890625, -187500.015625, -187500.015625, -0.09800000488758087, -0.6500000357627869, 0.7480000257492065, 192.0, 0.0, 0.0, 0.0, 0.0, 0.0, 0.0, 0.0, 0.0, 0.0, 1.6137590872421367E9, 2021-02-19 16:24:47.242
72.0, -13933.048828125, 19542.978515625, -14907.31640625, 135163.65625, -187500.015625, 29003.064453125, -187500.015625, -187500.015625, -0.09800000488758087, -0.6500000357627869, 0.7480000257492065, 192.0, 0.0, 0.0, 0.0, 0.0, 0.0, 0.0, 0.0, 0.0, 0.0, 1.6137590872462316E9, 2021-02-19 16:24:47.246
73.0, -13697.0595703125, 19540.095703125, -14909.1494140625, 135171.125, -187500.015625, 29189.767578125, -187500.015625, -187500.015625, -0.09800000488758087, -0.6500000357627869, 0.7480000257492065, 192.0, 0.0, 0.0, 0.0, 0.0, 0.0, 0.0, 0.0, 0.0, 0.0, 1.6137590872531624E9, 2021-02-19 16:24:47.253
74.0, -13651.8857421875, 19314.90234375, -15130.87890625, 134948.40625, -187500.015625, 32059.798828125, -187500.015625, -187500.015625, -0.09800000488758087, -0.6500000357627869, 0.7480000257492065, 192.0, 0.0, 0.0, 0.0, 0.0, 0.0, 0.0, 0.0, 0.0, 0.0, 1.6137590872581956E9, 2021-02-19 16:24:47.258
75.0, -13825.7607421875, 19240.40234375, -15207.3662109375, 134865.265625, -187500.015625, 34383.21875, -187500.015625, -187500.015625, -0.09800000488758087, -0.6500000357627869, 0.7480000257492065, 192.0, 0.0, 0.0, 0.0, 0.0, 0.0, 0.0, 0.0, 0.0, 0.0, 1.6137590872621024E9, 2021-02-19 16:24:47.262
76.0, -13927.3046875, 19413.96484375, -15034.3642578125, 135031.984375, -187500.015625, 33925.05078125, -187500.015625, -187500.015625, -0.10600000619888306, -0.6460000276565552, 0.7540000081062317, 192.0, 252.0, 176.0, 235.0, 208.0, 23.0, 144.0, 0.0, 0.0, 0.0, 1.613759087266191E9, 2021-02-19 16:24:47.266
77.0, -13725.1552734375, 19471.810546875, -14973.3662109375, 135094.140625, -187500.015625, 33732.91796875, -187500.015625, -187500.015625, -0.10600000619888306, -0.6460000276565552, 0.7540000081062317, 192.0, 0.0, 0.0, 0.0, 0.0, 0.0, 0.0, 0.0, 0.0, 0.0, 1.6137590872972765E9, 2021-02-19 16:24:47.297
78.0, -13622.515625, 19259.916015625, -15177.5263671875, 134888.484375, -187500.015625, 36371.33984375, -187500.015625, -187500.015625, -0.10600000619888306, -0.6460000276565552, 0.7540000081062317, 192.0, 0.0, 0.0, 0.0, 0.0, 0.0, 0.0, 0.0, 0.0, 0.0, 1.613759087308214E9, 2021-02-19 16:24:47.308
79.0, -13744.1318359375, 19127.794921875, -15308.84375, 134751.15625, -187500.015625, 39300.3984375, -187500.015625, -187500.015625, -0.10600000619888306, -0.6460000276565552, 0.7540000081062317, 192.0, 0.0, 0.0, 0.0, 0.0, 0.0, 0.0, 0.0, 0.0, 0.0, 1.613759087343232E9, 2021-02-19 16:24:47.343
80.0, -13890.9609375, 19243.822265625, -15197.5986328125, 134857.09375, -187500.015625, 39596.73828125, -187500.015625, -187500.015625, -0.10600000619888306, -0.6460000276565552, 0.7540000081062317, 192.0, 0.0, 0.0, 0.0, 0.0, 0.0, 0.0, 0.0, 0.0, 0.0, 1.6137590873502116E9, 2021-02-19 16:24:47.350
81.0, -13720.4609375, 19344.853515625, -15095.7421875, 134961.6875, -187500.015625, 39481.65234375, -187500.015625, -187500.015625, -0.10600000619888306, -0.6460000276565552, 0.7540000081062317, 192.0, 0.0, 0.0, 0.0, 0.0, 0.0, 0.0, 0.0, 0.0, 0.0, 1.61375908739929E9, 2021-02-19 16:24:47.399
82.0, -13551.392578125, 19157.2109375, -15278.310546875, 134781.734375, -187500.015625, 42094.6796875, -187500.015625, -187500.015625, -0.10600000619888306, -0.6460000276565552, 0.7540000081062317, 192.0, 0.0, 0.0, 0.0, 0.0, 0.0, 0.0, 0.0, 0.0, 0.0, 1.613759087405336E9, 2021-02-19 16:24:47.405
83.0, -13620.6162109375, 19010.828125, -15421.00390625, 134633.671875, -187500.015625, 45727.62109375, -187500.015625, -187500.015625, -0.10600000619888306, -0.6460000276565552, 0.7540000081062317, 192.0, 0.0, 0.0, 0.0, 0.0, 0.0, 0.0, 0.0, 0.0, 0.0, 1.613759087409324E9, 2021-02-19 16:24:47.409
84.0, -13777.01171875, 19156.00390625, -15280.3447265625, 134767.0625, -187500.015625, 46649.921875, -187500.015625, -187500.015625, -0.10600000619888306, -0.6460000276565552, 0.7540000081062317, 192.0, 0.0, 0.0, 0.0, 0.0, 0.0, 0.0, 0.0, 0.0, 0.0, 1.6137590874136128E9, 2021-02-19 16:24:47.413
85.0, -13697.6845703125, 19280.927734375, -15157.1201171875, 134894.5625, -187500.015625, 46315.515625, -187500.015625, -187500.015625, -0.10600000619888306, -0.6460000276565552, 0.7540000081062317, 192.0, 0.0, 0.0, 0.0, 0.0, 0.0, 0.0, 0.0, 0.0, 0.0, 1.613759087417282E9, 2021-02-19 16:24:47.417
86.0, -13663.978515625, 19086.578125, -15347.8466796875, 134707.1875, -187500.015625, 48457.44140625, -187500.015625, -187500.015625, -0.10000000149011612, -0.656000018119812, 0.7680000066757202, 192.0, 252.0, 224.0, 235.0, 128.0, 24.0, 0.0, 0.0, 0.0, 0.0, 1.6137590874212947E9, 2021-02-19 16:24:47.421
101.0, -14032.357421875, 19483.1875, -14963.419921875, 135069.859375, -187500.015625, 64860.9375, -187500.015625, -187500.015625, -0.10000000149011612, -0.656000018119812, 0.7680000066757202, 192.0, 0.0, 0.0, 0.0, 0.0, 0.0, 0.0, 0.0, 0.0, 0.0, 1.6137590874254105E9, 2021-02-19 16:24:47.425
88.0, -13973.05859375, 19138.904296875, -15296.818359375, 134743.53125, -187500.015625, 52924.7734375, -187500.015625, -187500.015625, -0.10000000149011612, -0.656000018119812, 0.7680000066757202, 192.0, 0.0, 0.0, 0.0, 0.0, 0.0, 0.0, 0.0, 0.0, 0.0, 1.613759087429382E9, 2021-02-19 16:24:47.429
89.0, -13846.591796875, 19356.654296875, -15082.62109375, 134961.171875, -187500.015625, 52138.68359375, -187500.015625, -187500.015625, -0.10000000149011612, -0.656000018119812, 0.7680000066757202, 192.0, 0.0, 0.0, 0.0, 0.0, 0.0, 0.0, 0.0, 0.0, 0.0, 1.6137590874343204E9, 2021-02-19 16:24:47.434
90.0, -13658.9267578125, 19268.7890625, -15165.412109375, 134879.9375, -187500.015625, 53366.48828125, -187500.015625, -187500.015625, -0.10000000149011612, -0.656000018119812, 0.7680000066757202, 192.0, 0.0, 0.0, 0.0, 0.0, 0.0, 0.0, 0.0, 0.0, 0.0, 1.613759087437296E9, 2021-02-19 16:24:47.437
99.0, -13750.994140625, 19242.50390625, -15197.21875, 134845.90625, -187500.015625, 63651.375, -187500.015625, -187500.015625, -0.10000000149011612, -0.656000018119812, 0.7680000066757202, 192.0, 0.0, 0.0, 0.0, 0.0, 0.0, 0.0, 0.0, 0.0, 0.0, 1.6137590874423697E9, 2021-02-19 16:24:47.442
92.0, -13904.505859375, 19197.2421875, -15240.357421875, 134799.296875, -187500.015625, 58075.10546875, -187500.015625, -187500.015625, -0.10000000149011612, -0.656000018119812, 0.7680000066757202, 192.0, 0.0, 0.0, 0.0, 0.0, 0.0, 0.0, 0.0, 0.0, 0.0, 1.6137590874624083E9, 2021-02-19 16:24:47.462
143.0, -14388.5771484375, 19238.392578125, -15200.9072265625, 134781.578125, -187500.015625, 109293.0546875, -187500.015625, -187500.015625, -0.10000000149011612, -0.656000018119812, 0.7680000066757202, 192.0, 0.0, 0.0, 0.0, 0.0, 0.0, 0.0, 0.0, 0.0, 0.0, 1.6137590874883904E9, 2021-02-19 16:24:47.488
94.0, -13670.4384765625, 19382.1796875, -15055.8212890625, 134988.8125, -187500.015625, 57671.56640625, -187500.015625, -187500.015625, -0.10000000149011612, -0.656000018119812, 0.7680000066757202, 192.0, 0.0, 0.0, 0.0, 0.0, 0.0, 0.0, 0.0, 0.0, 0.0, 1.6137590874913764E9, 2021-02-19 16:24:47.491
95.0, -13697.953125, 19151.623046875, -15283.943359375, 134760.765625, -187500.015625, 60602.41796875, -187500.015625, -187500.015625, -0.10000000149011612, -0.656000018119812, 0.7680000066757202, 192.0, 0.0, 0.0, 0.0, 0.0, 0.0, 0.0, 0.0, 0.0, 0.0, 1.6137590875104012E9, 2021-02-19 16:24:47.510
128.0, -13993.7119140625, 19228.623046875, -15211.724609375, 134796.8125, -187500.015625, 89689.4375, -187500.015625, -187500.015625, -0.10000000149011612, -0.656000018119812, 0.7680000066757202, 192.0, 0.0, 0.0, 0.0, 0.0, 0.0, 0.0, 0.0, 0.0, 0.0, 1.6137590875274508E9, 2021-02-19 16:24:47.527
103.0, -13717.130859375, 19390.427734375, -15048.580078125, 134988.859375, -187500.015625, 65950.6953125, -187500.015625, -187500.015625, -0.10000000149011612, -0.656000018119812, 0.7680000066757202, 192.0, 0.0, 0.0, 0.0, 0.0, 0.0, 0.0, 0.0, 0.0, 0.0, 1.6137590875324433E9, 2021-02-19 16:24:47.532
141.0, -14161.3271484375, 19014.5390625, -15420.7587890625, 134574.109375, -187500.015625, 107215.8125, -187500.015625, -187500.015625, -0.10000000149011612, -0.656000018119812, 0.7680000066757202, 192.0, 0.0, 0.0, 0.0, 0.0, 0.0, 0.0, 0.0, 0.0, 0.0, 1.6137590875364394E9, 2021-02-19 16:24:47.536
139.0, -14397.6748046875, 19397.8046875, -15045.2265625, 134944.65625, -187500.015625, 102611.359375, -187500.015625, -187500.015625, -0.10000000149011612, -0.656000018119812, 0.7680000066757202, 192.0, 0.0, 0.0, 0.0, 0.0, 0.0, 0.0, 0.0, 0.0, 0.0, 1.613759087547617E9, 2021-02-19 16:24:47.547
106.0, -13896.4365234375, 19570.3828125, -14876.0693359375, 135154.109375, -187500.015625, 66569.1484375, -187500.015625, -187500.015625, -0.09800000488758087, -0.6480000019073486, 0.7640000581741333, 192.0, 252.0, 240.0, 235.0, 192.0, 23.0, 224.0, 0.0, 0.0, 0.0, 1.6137590875675724E9, 2021-02-19 16:24:47.567
124.0, -13921.2021484375, 19192.525390625, -15247.599609375, 134767.296875, -187500.015625, 85933.0703125, -187500.015625, -187500.015625, -0.09800000488758087, -0.6480000019073486, 0.7640000581741333, 192.0, 0.0, 0.0, 0.0, 0.0, 0.0, 0.0, 0.0, 0.0, 0.0, 1.6137590875716236E9, 2021-02-19 16:24:47.571
137.0, -14171.765625, 19089.193359375, -15345.1875, 134650.640625, -187500.015625, 101924.640625, -187500.015625, -187500.015625, -0.09800000488758087, -0.6480000019073486, 0.7640000581741333, 192.0, 0.0, 0.0, 0.0, 0.0, 0.0, 0.0, 0.0, 0.0, 0.0, 1.6137590875746803E9, 2021-02-19 16:24:47.574
109.0, -14021.9189453125, 19336.6953125, -15109.80078125, 134914.125, -187500.015625, 71252.8671875, -187500.015625, -187500.015625, -0.09800000488758087, -0.6480000019073486, 0.7640000581741333, 192.0, 0.0, 0.0, 0.0, 0.0, 0.0, 0.0, 0.0, 0.0, 0.0, 1.6137590875784917E9, 2021-02-19 16:24:47.578
134.0, -14387.9072265625, 19229.71875, -15209.0654296875, 134777.75, -187500.015625, 97840.3515625, -187500.015625, -187500.015625, -0.09800000488758087, -0.6480000019073486, 0.7640000581741333, 192.0, 0.0, 0.0, 0.0, 0.0, 0.0, 0.0, 0.0, 0.0, 0.0, 1.6137590875814824E9, 2021-02-19 16:24:47.581
117.0, -13963.3798828125, 19283.498046875, -15162.1044921875, 134850.5, -187500.015625, 80035.3359375, -187500.015625, -187500.015625, -0.09800000488758087, -0.6480000019073486, 0.7640000581741333, 192.0, 0.0, 0.0, 0.0, 0.0, 0.0, 0.0, 0.0, 0.0, 0.0, 1.6137590875845752E9, 2021-02-19 16:24:47.584
132.0, -14058.7099609375, 19273.05859375, -15159.869140625, 134836.46875, -187500.015625, 93861.3671875, -187500.015625, -187500.015625, -0.09800000488758087, -0.6480000019073486, 0.7640000581741333, 192.0, 0.0, 0.0, 0.0, 0.0, 0.0, 0.0, 0.0, 0.0, 0.0, 1.6137590876055775E9, 2021-02-19 16:24:47.605
129.0, -14168.79296875, 19048.447265625, -15386.001953125, 134611.5625, -187500.015625, 92637.78125, -187500.015625, -187500.015625, -0.09800000488758087, -0.6480000019073486, 0.7640000581741333, 192.0, 0.0, 0.0, 0.0, 0.0, 0.0, 0.0, 0.0, 0.0, 0.0, 1.6137590876096127E9, 2021-02-19 16:24:47.609
130.0, -14384.8447265625, 19220.443359375, -15216.083984375, 134772.125, -187500.015625, 92781.75, -187500.015625, -187500.015625, -0.09800000488758087, -0.6480000019073486, 0.7640000581741333, 192.0, 0.0, 0.0, 0.0, 0.0, 0.0, 0.0, 0.0, 0.0, 0.0, 1.6137590876135993E9, 2021-02-19 16:24:47.613
144.0, -14173.2626953125, 19187.318359375, -15248.314453125, 134743.109375, -187500.015625, 110144.25, -187500.015625, -187500.015625, -0.09800000488758087, -0.6480000019073486, 0.7640000581741333, 192.0, 0.0, 0.0, 0.0, 0.0, 0.0, 0.0, 0.0, 0.0, 0.0, 1.6137590876166737E9, 2021-02-19 16:24:47.616
145.0, -14157.7958984375, 18941.828125, -15489.9599609375, 134505.328125, -187500.015625, 113555.5546875, -187500.015625, -187500.015625, -0.09200000762939453, -0.6500000357627869, 0.7620000243186951, 192.0, 253.0, 32.0, 235.0, 176.0, 23.0, 208.0, 0.0, 0.0, 0.0, 1.6137590876206975E9, 2021-02-19 16:24:47.620
146.0, -14383.0791015625, 18902.51171875, -15534.328125, 134454.4375, -187500.015625, 116158.125, -187500.015625, -187500.015625, -0.09200000762939453, -0.6500000357627869, 0.7620000243186951, 192.0, 0.0, 0.0, 0.0, 0.0, 0.0, 0.0, 0.0, 0.0, 0.0, 1.6137590876235795E9, 2021-02-19 16:24:47.623
165.0, -14159.94140625, 19716.5625, -14718.712890625, 135254.890625, -187500.015625, 121949.546875, -187500.015625, -187500.015625, -0.09800000488758087, -0.6500000357627869, 0.7660000324249268, 192.0, 252.0, 240.0, 235.0, 176.0, 23.0, 240.0, 0.0, 0.0, 0.0, 1.613759087626586E9, 2021-02-19 16:24:47.626
148.0, -14206.298828125, 19268.65625, -15171.357421875, 134817.6875, -187500.015625, 116029.625, -187500.015625, -187500.015625, -0.09800000488758087, -0.6500000357627869, 0.7660000324249268, 192.0, 0.0, 0.0, 0.0, 0.0, 0.0, 0.0, 0.0, 0.0, 0.0, 1.613759087630578E9, 2021-02-19 16:24:47.630
149.0, -14115.4833984375, 19086.04296875, -15344.181640625, 134639.84375, -187500.015625, 118682.6875, -187500.015625, -187500.015625, -0.09800000488758087, -0.6500000357627869, 0.7660000324249268, 192.0, 0.0, 0.0, 0.0, 0.0, 0.0, 0.0, 0.0, 0.0, 0.0, 1.613759087633598E9, 2021-02-19 16:24:47.633
163.0, -14394.9697265625, 19457.70703125, -14978.283203125, 134989.3125, -187500.015625, 123645.734375, -187500.015625, -187500.015625, -0.09800000488758087, -0.6500000357627869, 0.7660000324249268, 192.0, 0.0, 0.0, 0.0, 0.0, 0.0, 0.0, 0.0, 0.0, 0.0, 1.6137590876375992E9, 2021-02-19 16:24:47.637
151.0, -14463.1875, 19377.240234375, -15062.7060546875, 134911.328125, -187500.015625, 120343.1953125, -187500.015625, -187500.015625, -0.09800000488758087, -0.6500000357627869, 0.7660000324249268, 192.0, 0.0, 0.0, 0.0, 0.0, 0.0, 0.0, 0.0, 0.0, 0.0, 1.6137590876406755E9, 2021-02-19 16:24:47.640
158.0, -14169.150390625, 19404.978515625, -15032.083984375, 134947.015625, -187500.015625, 122482.8203125, -187500.015625, -187500.015625, -0.09800000488758087, -0.6500000357627869, 0.7660000324249268, 192.0, 0.0, 0.0, 0.0, 0.0, 0.0, 0.0, 0.0, 0.0, 0.0, 1.613759087643586E9, 2021-02-19 16:24:47.643
161.0, -14052.49609375, 19723.982421875, -14712.6103515625, 135264.59375, -187500.015625, 120626.234375, -187500.015625, -187500.015625, -0.09800000488758087, -0.6500000357627869, 0.7660000324249268, 192.0, 0.0, 0.0, 0.0, 0.0, 0.0, 0.0, 0.0, 0.0, 0.0, 1.6137590876477425E9, 2021-02-19 16:24:47.647
154.0, -14228.001953125, 19306.341796875, -15133.7177734375, 134848.875, -187500.015625, 122344.390625, -187500.015625, -187500.015625, -0.09800000488758087, -0.6500000357627869, 0.7660000324249268, 192.0, 0.0, 0.0, 0.0, 0.0, 0.0, 0.0, 0.0, 0.0, 0.0, 1.6137590876505835E9, 2021-02-19 16:24:47.650
174.0, -14212.4453125, 19445.123046875, -14982.0166015625, 134981.078125, -187500.015625, 128821.0546875, -187500.015625, -187500.015625, -0.09800000488758087, -0.6500000357627869, 0.7660000324249268, 192.0, 0.0, 0.0, 0.0, 0.0, 0.0, 0.0, 0.0, 0.0, 0.0, 1.6137590876535888E9, 2021-02-19 16:24:47.653
166.0, -14156.6552734375, 19436.8984375, -14995.6953125, 134978.140625, -187500.015625, 124446.1953125, -187500.015625, -187500.015625, -0.09800000488758087, -0.6500000357627869, 0.7660000324249268, 192.0, 0.0, 0.0, 0.0, 0.0, 0.0, 0.0, 0.0, 0.0, 0.0, 1.61375908765659E9, 2021-02-19 16:24:47.656
167.0, -14405.9443359375, 19431.17578125, -15004.859375, 134960.640625, -187500.015625, 125823.4609375, -187500.015625, -187500.015625, -0.09800000488758087, -0.6500000357627869, 0.7660000324249268, 192.0, 0.0, 0.0, 0.0, 0.0, 0.0, 0.0, 0.0, 0.0, 0.0, 1.6137590876628284E9, 2021-02-19 16:24:47.662
172.0, -14590.1455078125, 19570.583984375, -14861.115234375, 135090.625, -187500.015625, 127551.09375, -187500.015625, -187500.015625, -0.09800000488758087, -0.6500000357627869, 0.7660000324249268, 192.0, 0.0, 0.0, 0.0, 0.0, 0.0, 0.0, 0.0, 0.0, 0.0, 1.6137590877366903E9, 2021-02-19 16:24:47.736
184.0, -14593.8115234375, 19489.357421875, -14950.6787109375, 134995.59375, -187500.015625, 136264.546875, -187500.015625, -187500.015625, -0.09800000488758087, -0.6500000357627869, 0.7660000324249268, 192.0, 0.0, 0.0, 0.0, 0.0, 0.0, 0.0, 0.0, 0.0, 0.0, 1.6137590877407417E9, 2021-02-19 16:24:47.740
176.0, -14566.9892578125, 19559.49609375, -14878.52734375, 135072.6875, -187500.015625, 130714.71875, -187500.015625, -187500.015625, -0.09800000488758087, -0.6500000357627869, 0.7660000324249268, 192.0, 0.0, 0.0, 0.0, 0.0, 0.0, 0.0, 0.0, 0.0, 0.0, 1.6137590877456868E9, 2021-02-19 16:24:47.745
177.0, -14411.64453125, 19651.876953125, -14784.2705078125, 135171.65625, -187500.015625, 129656.65625, -187500.015625, -187500.015625, -0.09800000488758087, -0.6500000357627869, 0.7660000324249268, 192.0, 0.0, 0.0, 0.0, 0.0, 0.0, 0.0, 0.0, 0.0, 0.0, 1.6137590877507148E9, 2021-02-19 16:24:47.750
181.0, -14468.1044921875, 19675.703125, -14764.533203125, 135183.59375, -187500.015625, 132175.65625, -187500.015625, -187500.015625, -0.09800000488758087, -0.6500000357627869, 0.7660000324249268, 192.0, 0.0, 0.0, 0.0, 0.0, 0.0, 0.0, 0.0, 0.0, 0.0, 1.6137590877579095E9, 2021-02-19 16:24:47.757
185.0, -14505.857421875, 19753.33203125, -14689.4765625, 135261.703125, -187500.015625, 134639.578125, -187500.015625, -187500.015625, -0.10200000554323196, -0.6480000019073486, 0.7640000581741333, 192.0, 252.0, 208.0, 235.0, 192.0, 23.0, 224.0, 0.0, 0.0, 0.0, 1.6137590877877493E9, 2021-02-19 16:24:47.787
186.0, -14253.908203125, 19697.36328125, -14741.1533203125, 135215.21875, -187500.015625, 134934.65625, -187500.015625, -187500.015625, -0.10200000554323196, -0.6480000019073486, 0.7640000581741333, 192.0, 0.0, 0.0, 0.0, 0.0, 0.0, 0.0, 0.0, 0.0, 0.0, 1.613759087792739E9, 2021-02-19 16:24:47.792
194.0, -14366.76171875, 19742.826171875, -14691.8232421875, 135246.21875, -187500.015625, 137776.015625, -187500.015625, -187500.015625, -0.10200000554323196, -0.6480000019073486, 0.7640000581741333, 192.0, 0.0, 0.0, 0.0, 0.0, 0.0, 0.0, 0.0, 0.0, 0.0, 1.6137590878178353E9, 2021-02-19 16:24:47.817
227.0, -14216.8037109375, 20164.37890625, -14276.1484375, 135625.859375, -187500.015625, 141399.046875, -187500.015625, -187500.015625, -0.10200000554323196, -0.6480000019073486, 0.7640000581741333, 192.0, 0.0, 0.0, 0.0, 0.0, 0.0, 0.0, 0.0, 0.0, 0.0, 1.6137590878208911E9, 2021-02-19 16:24:47.820
192.0, -14488.6689453125, 19459.830078125, -14972.9189453125, 134957.125, -187500.015625, 139855.3125, -187500.015625, -187500.015625, -0.10200000554323196, -0.6480000019073486, 0.7640000581741333, 192.0, 0.0, 0.0, 0.0, 0.0, 0.0, 0.0, 0.0, 0.0, 0.0, 1.6137590878408058E9, 2021-02-19 16:24:47.840
190.0, -14304.5576171875, 19720.228515625, -14720.4111328125, 135223.734375, -187500.015625, 136223.1875, -187500.015625, -187500.015625, -0.10200000554323196, -0.6480000019073486, 0.7640000581741333, 192.0, 0.0, 0.0, 0.0, 0.0, 0.0, 0.0, 0.0, 0.0, 0.0, 1.6137590878439996E9, 2021-02-19 16:24:47.843
195.0, -14292.6435546875, 19494.23046875, -14939.5029296875, 135000.53125, -187500.015625, 139885.34375, -187500.015625, -187500.015625, -0.10200000554323196, -0.6520000100135803, 0.7660000324249268, 192.0, 252.0, 208.0, 235.0, 160.0, 23.0, 240.0, 0.0, 0.0, 0.0, 1.6137590878478396E9, 2021-02-19 16:24:47.847
225.0, -14195.123046875, 19715.779296875, -14719.875, 135187.65625, -187500.015625, 145528.875, -187500.015625, -187500.015625, -0.10200000554323196, -0.6520000100135803, 0.7660000324249268, 192.0, 0.0, 0.0, 0.0, 0.0, 0.0, 0.0, 0.0, 0.0, 0.0, 1.6137590878508048E9, 2021-02-19 16:24:47.850
197.0, -14645.890625, 19629.501953125, -14811.8974609375, 135117.28125, -187500.015625, 140879.0, -187500.015625, -187500.015625, -0.10200000554323196, -0.6520000100135803, 0.7660000324249268, 192.0, 0.0, 0.0, 0.0, 0.0, 0.0, 0.0, 0.0, 0.0, 0.0, 1.6137590878548613E9, 2021-02-19 16:24:47.854
223.0, -14240.8994140625, 20061.830078125, -14379.8828125, 135529.125, -187500.015625, 143574.59375, -187500.015625, -187500.015625, -0.10200000554323196, -0.6520000100135803, 0.7660000324249268, 192.0, 0.0, 0.0, 0.0, 0.0, 0.0, 0.0, 0.0, 0.0, 0.0, 1.6137590878600092E9, 2021-02-19 16:24:47.860
199.0, -14304.5791015625, 19524.716796875, -14911.787109375, 135020.984375, -187500.015625, 141601.453125, -187500.015625, -187500.015625, -0.10200000554323196, -0.6520000100135803, 0.7660000324249268, 192.0, 0.0, 0.0, 0.0, 0.0, 0.0, 0.0, 0.0, 0.0, 0.0, 1.6137590878668623E9, 2021-02-19 16:24:47.866
221.0, -14332.630859375, 19622.796875, -14811.47265625, 135094.90625, -187500.015625, 147411.78125, -187500.015625, -187500.015625, -0.10200000554323196, -0.6520000100135803, 0.7660000324249268, 192.0, 0.0, 0.0, 0.0, 0.0, 0.0, 0.0, 0.0, 0.0, 0.0, 1.6137590878698325E9, 2021-02-19 16:24:47.869
201.0, -14680.06640625, 19571.8125, -14868.513671875, 135052.390625, -187500.015625, 143444.234375, -187500.015625, -187500.015625, -0.10200000554323196, -0.6520000100135803, 0.7660000324249268, 192.0, 0.0, 0.0, 0.0, 0.0, 0.0, 0.0, 0.0, 0.0, 0.0, 1.6137590878738368E9, 2021-02-19 16:24:47.873
219.0, -14290.900390625, 19944.86328125, -14492.1328125, 135419.171875, -187500.015625, 145011.46875, -187500.015625, -187500.015625, -0.10200000554323196, -0.6520000100135803, 0.7660000324249268, 192.0, 0.0, 0.0, 0.0, 0.0, 0.0, 0.0, 0.0, 0.0, 0.0, 1.6137590878768423E9, 2021-02-19 16:24:47.876
217.0, -14478.3642578125, 19583.703125, -14852.7109375, 135054.015625, -187500.015625, 148469.515625, -187500.015625, -187500.015625, -0.10200000554323196, -0.6520000100135803, 0.7660000324249268, 192.0, 0.0, 0.0, 0.0, 0.0, 0.0, 0.0, 0.0, 0.0, 0.0, 1.6137590878800192E9, 2021-02-19 16:24:47.880
204.0, -14491.685546875, 19296.529296875, -15138.7685546875, 134788.40625, -187500.015625, 145884.0, -187500.015625, -187500.015625, -0.10200000554323196, -0.6520000100135803, 0.7660000324249268, 192.0, 0.0, 0.0, 0.0, 0.0, 0.0, 0.0, 0.0, 0.0, 0.0, 1.6137590878839266E9, 2021-02-19 16:24:47.883
205.0, -14725.015625, 19498.96875, -14941.4921875, 134978.015625, -187500.015625, 145845.109375, -187500.015625, -187500.015625, -0.09400000423192978, -0.6520000100135803, 0.7600000500679016, 192.0, 253.0, 16.0, 235.0, 160.0, 23.0, 192.0, 0.0, 0.0, 0.0, 1.6137590878868356E9, 2021-02-19 16:24:47.886
240.0, -13814.62890625, 20407.947265625, -14027.9541015625, 135860.46875, -187500.015625, 128946.8984375, -187500.015625, -187500.015625, -0.09400000423192978, -0.6520000100135803, 0.7600000500679016, 192.0, 0.0, 0.0, 0.0, 0.0, 0.0, 0.0, 0.0, 0.0, 0.0, 1.61375908788985E9, 2021-02-19 16:24:47.889
207.0, -14377.423828125, 19595.080078125, -14846.1845703125, 135087.03125, -187500.015625, 144842.515625, -187500.015625, -187500.015625, -0.09400000423192978, -0.6520000100135803, 0.7600000500679016, 192.0, 0.0, 0.0, 0.0, 0.0, 0.0, 0.0, 0.0, 0.0, 0.0, 1.6137590878928928E9, 2021-02-19 16:24:47.892
213.0, -14601.3662109375, 19509.115234375, -14929.3330078125, 134982.40625, -187500.015625, 148549.328125, -187500.015625, -187500.015625, -0.09400000423192978, -0.6520000100135803, 0.7600000500679016, 192.0, 0.0, 0.0, 0.0, 0.0, 0.0, 0.0, 0.0, 0.0, 0.0, 1.6137590878970127E9, 2021-02-19 16:24:47.897
238.0, -14046.595703125, 20066.27734375, -14370.8525390625, 135512.15625, -187500.015625, 134036.328125, -187500.015625, -187500.015625, -0.09400000423192978, -0.6520000100135803, 0.7600000500679016, 192.0, 0.0, 0.0, 0.0, 0.0, 0.0, 0.0, 0.0, 0.0, 0.0, 1.6137590879001288E9, 2021-02-19 16:24:47.900
210.0, -14625.4609375, 19742.490234375, -14702.9326171875, 135218.21875, -187500.015625, 145770.5, -187500.015625, -187500.015625, -0.09400000423192978, -0.6520000100135803, 0.7600000500679016, 192.0, 0.0, 0.0, 0.0, 0.0, 0.0, 0.0, 0.0, 0.0, 0.0, 1.6137590879038649E9, 2021-02-19 16:24:47.903
211.0, -14397.5849609375, 19667.6796875, -14770.8818359375, 135151.40625, -187500.015625, 145703.3125, -187500.015625, -187500.015625, -0.09400000423192978, -0.6520000100135803, 0.7600000500679016, 192.0, 0.0, 0.0, 0.0, 0.0, 0.0, 0.0, 0.0, 0.0, 0.0, 1.6137590879289033E9, 2021-02-19 16:24:47.928
247.0, -14034.97265625, 20337.873046875, -14101.1787109375, 135779.25, -187500.015625, 122532.640625, -187500.015625, -187500.015625, -0.09400000423192978, -0.6520000100135803, 0.7600000500679016, 192.0, 0.0, 0.0, 0.0, 0.0, 0.0, 0.0, 0.0, 0.0, 0.0, 1.613759087931974E9, 2021-02-19 16:24:47.931
229.0, -14023.3720703125, 19845.509765625, -14585.138671875, 135315.46875, -187500.015625, 142310.84375, -187500.015625, -187500.015625, -0.09400000423192978, -0.6520000100135803, 0.7600000500679016, 192.0, 0.0, 0.0, 0.0, 0.0, 0.0, 0.0, 0.0, 0.0, 0.0, 1.6137590879460387E9, 2021-02-19 16:24:47.946
234.0, -14119.5068359375, 20069.83203125, -14363.8115234375, 135521.8125, -187500.015625, 137897.9375, -187500.015625, -187500.015625, -0.09000000357627869, -0.6420000195503235, 0.7640000581741333, 192.0, 253.0, 48.0, 235.0, 240.0, 23.0, 224.0, 0.0, 0.0, 0.0, 1.6137590879489048E9, 2021-02-19 16:24:47.948
253.0, -13587.1552734375, 20402.001953125, -14023.5732421875, 135853.703125, -187500.015625, 113984.5234375, -187500.015625, -187500.015625, -0.09000000357627869, -0.6420000195503235, 0.7640000581741333, 192.0, 0.0, 0.0, 0.0, 0.0, 0.0, 0.0, 0.0, 0.0, 0.0, 1.6137590879529138E9, 2021-02-19 16:24:47.952
251.0, -13996.572265625, 20316.974609375, -14116.2880859375, 135756.75, -187500.015625, 118016.4453125, -187500.015625, -187500.015625, -0.09000000357627869, -0.6420000195503235, 0.7640000581741333, 192.0, 0.0, 0.0, 0.0, 0.0, 0.0, 0.0, 0.0, 0.0, 0.0, 1.6137590879560647E9, 2021-02-19 16:24:47.956
241.0, -13716.1923828125, 20168.73828125, -14262.6923828125, 135628.65625, -187500.015625, 129580.7265625, -187500.015625, -187500.015625, -0.09000000357627869, -0.6420000195503235, 0.7640000581741333, 192.0, 0.0, 0.0, 0.0, 0.0, 0.0, 0.0, 0.0, 0.0, 0.0, 1.6137590879588983E9, 2021-02-19 16:24:47.958
242.0, -13920.912109375, 20094.0390625, -14339.470703125, 135544.640625, -187500.015625, 129692.484375, -187500.015625, -187500.015625, -0.09000000357627869, -0.6420000195503235, 0.7640000581741333, 192.0, 0.0, 0.0, 0.0, 0.0, 0.0, 0.0, 0.0, 0.0, 0.0, 1.6137590879629662E9, 2021-02-19 16:24:47.962
248.0, -13824.5537109375, 20495.341796875, -13943.77734375, 135941.765625, -187500.015625, 119540.3203125, -187500.015625, -187500.015625, -0.09000000357627869, -0.6420000195503235, 0.7640000581741333, 192.0, 0.0, 0.0, 0.0, 0.0, 0.0, 0.0, 0.0, 0.0, 0.0, 1.6137590879660888E9, 2021-02-19 16:24:47.966
249.0, -13641.5146484375, 20299.0703125, -14133.923828125, 135752.21875, -187500.015625, 119297.71875, -187500.015625, -187500.015625, -0.09000000357627869, -0.6420000195503235, 0.7640000581741333, 192.0, 0.0, 0.0, 0.0, 0.0, 0.0, 0.0, 0.0, 0.0, 0.0, 1.6137590879690049E9, 2021-02-19 16:24:47.969
254.0, -13635.994140625, 20209.931640625, -14213.138671875, 135659.34375, -187500.015625, 114773.3671875, -187500.015625, -187500.015625, -0.09600000083446503, -0.6440000534057617, 0.7640000581741333, 192.0, 253.0, 0.0, 235.0, 224.0, 23.0, 224.0, 0.0, 0.0, 0.0, 1.6137590879729297E9, 2021-02-19 16:24:47.972
255.0, -13868.3408203125, 20323.61328125, -14106.54296875, 135761.78125, -187500.015625, 113334.5859375, -187500.015625, -187500.015625, -0.09600000083446503, -0.6440000534057617, 0.7640000581741333, 192.0, 0.0, 0.0, 0.0, 0.0, 0.0, 0.0, 0.0, 0.0, 0.0, 1.613759087975952E9, 2021-02-19 16:24:47.975
0.0, -13832.0185546875, 20515.525390625, -13915.8154296875, 135955.796875, -187500.015625, 110037.5859375, -187500.015625, -187500.015625, -0.09600000083446503, -0.6440000534057617, 0.7640000581741333, 192.0, 0.0, 0.0, 0.0, 0.0, 0.0, 0.0, 0.0, 0.0, 0.0, 1.6137590879789636E9, 2021-02-19 16:24:47.978
1.0, -13603.3828125, 20418.765625, -14007.9267578125, 135867.4375, -187500.015625, 108746.7734375, -187500.015625, -187500.015625, -0.09600000083446503, -0.6440000534057617, 0.7640000581741333, 192.0, 0.0, 0.0, 0.0, 0.0, 0.0, 0.0, 0.0, 0.0, 0.0, 1.6137590879829535E9, 2021-02-19 16:24:47.982
2.0, -13631.4794921875, 20149.42578125, -14273.4658203125, 135599.578125, -187500.015625, 109577.9453125, -187500.015625, -187500.015625, -0.09600000083446503, -0.6440000534057617, 0.7640000581741333, 192.0, 0.0, 0.0, 0.0, 0.0, 0.0, 0.0, 0.0, 0.0, 0.0, 1.613759087986014E9, 2021-02-19 16:24:47.986
3.0, -13870.3076171875, 20244.064453125, -14183.9921875, 135678.953125, -187500.015625, 108731.8671875, -187500.015625, -187500.015625, -0.09600000083446503, -0.6440000534057617, 0.7640000581741333, 192.0, 0.0, 0.0, 0.0, 0.0, 0.0, 0.0, 0.0, 0.0, 0.0, 1.61375908798919E9, 2021-02-19 16:24:47.989
4.0, -13847.2177734375, 20529.0703125, -13904.5947265625, 135958.859375, -187500.015625, 105496.0078125, -187500.015625, -187500.015625, -0.09600000083446503, -0.6440000534057617, 0.7640000581741333, 192.0, 0.0, 0.0, 0.0, 0.0, 0.0, 0.0, 0.0, 0.0, 0.0, 1.6137590880090442E9, 2021-02-19 16:24:48.009
5.0, -13598.6220703125, 20469.078125, -13961.033203125, 135907.671875, -187500.015625, 103682.4296875, -187500.015625, -187500.015625, -0.09600000083446503, -0.6440000534057617, 0.7640000581741333, 192.0, 0.0, 0.0, 0.0, 0.0, 0.0, 0.0, 0.0, 0.0, 0.0, 1.613759088014094E9, 2021-02-19 16:24:48.014
6.0, -13567.552734375, 20220.080078125, -14208.6904296875, 135661.15625, -187500.015625, 104403.8515625, -187500.015625, -187500.015625, -0.09600000083446503, -0.6440000534057617, 0.7640000581741333, 192.0, 0.0, 0.0, 0.0, 0.0, 0.0, 0.0, 0.0, 0.0, 0.0, 1.6137590880219953E9, 2021-02-19 16:24:48.021
7.0, -13776.3408203125, 20206.892578125, -14225.2529296875, 135636.21875, -187500.015625, 104130.8046875, -187500.015625, -187500.015625, -0.09600000083446503, -0.6440000534057617, 0.7640000581741333, 192.0, 0.0, 0.0, 0.0, 0.0, 0.0, 0.0, 0.0, 0.0, 0.0, 1.6137590880250316E9, 2021-02-19 16:24:48.025
8.0, -13888.2109375, 20419.32421875, -14016.107421875, 135843.140625, -187500.015625, 101153.84375, -187500.015625, -187500.015625, -0.09600000083446503, -0.6480000019073486, 0.7660000324249268, 192.0, 253.0, 0.0, 235.0, 192.0, 23.0, 240.0, 0.0, 0.0, 0.0, 1.613759088034042E9, 2021-02-19 16:24:48.034
19.0, -13650.5673828125, 20063.39453125, -14359.564453125, 135495.328125, -187500.015625, 91572.3671875, -187500.015625, -187500.015625, -0.09600000083446503, -0.6480000019073486, 0.7660000324249268, 192.0, 0.0, 0.0, 0.0, 0.0, 0.0, 0.0, 0.0, 0.0, 0.0, 1.6137590880370145E9, 2021-02-19 16:24:48.037
10.0, -13561.6298828125, 20218.001953125, -14203.0576171875, 135659.75, -187500.015625, 99409.046875, -187500.015625, -187500.015625, -0.09600000083446503, -0.6480000019073486, 0.7660000324249268, 192.0, 0.0, 0.0, 0.0, 0.0, 0.0, 0.0, 0.0, 0.0, 0.0, 1.6137590880410447E9, 2021-02-19 16:24:48.041
11.0, -13717.5556640625, 20184.67578125, -14235.9599609375, 135618.90625, -187500.015625, 99664.8828125, -187500.015625, -187500.015625, -0.09600000083446503, -0.6480000019073486, 0.7660000324249268, 192.0, 0.0, 0.0, 0.0, 0.0, 0.0, 0.0, 0.0, 0.0, 0.0, 1.6137590881101034E9, 2021-02-19 16:24:48.110
12.0, -13852.470703125, 20415.390625, -14012.8896484375, 135841.203125, -187500.015625, 97078.6328125, -187500.015625, -187500.015625, -0.09600000083446503, -0.6480000019073486, 0.7660000324249268, 192.0, 0.0, 0.0, 0.0, 0.0, 0.0, 0.0, 0.0, 0.0, 0.0, 1.6137590881132293E9, 2021-02-19 16:24:48.113
17.0, -13742.4111328125, 20459.958984375, -13968.8564453125, 135887.203125, -187500.015625, 90637.75, -187500.015625, -187500.015625, -0.09600000083446503, -0.6460000276565552, 0.7600000500679016, 192.0, 253.0, 0.0, 235.0, 208.0, 23.0, 192.0, 0.0, 0.0, 0.0, 1.613759088117201E9, 2021-02-19 16:24:48.117
14.0, -13505.728515625, 20284.900390625, -14136.3603515625, 135723.859375, -187500.015625, 94673.71875, -187500.015625, -187500.015625, -0.09600000083446503, -0.6460000276565552, 0.7600000500679016, 192.0, 0.0, 0.0, 0.0, 0.0, 0.0, 0.0, 0.0, 0.0, 0.0, 1.6137590881203046E9, 2021-02-19 16:24:48.120
23.0, -13626.9189453125, 20045.53515625, -14372.2607421875, 135476.0, -187500.015625, 87826.796875, -187500.015625, -187500.015625, -0.09600000083446503, -0.6460000276565552, 0.7600000500679016, 192.0, 0.0, 0.0, 0.0, 0.0, 0.0, 0.0, 0.0, 0.0, 0.0, 1.613759088124149E9, 2021-02-19 16:24:48.124
20.0, -13880.5224609375, 20273.6796875, -14155.2919921875, 135693.25, -187500.015625, 90057.4765625, -187500.015625, -187500.015625, -0.09600000083446503, -0.6460000276565552, 0.7600000500679016, 192.0, 0.0, 0.0, 0.0, 0.0, 0.0, 0.0, 0.0, 0.0, 0.0, 1.613759088127203E9, 2021-02-19 16:24:48.127
21.0, -13730.7431640625, 20480.634765625, -13948.806640625, 135903.96875, -187500.015625, 86985.765625, -187500.015625, -187500.015625, -0.09600000083446503, -0.6460000276565552, 0.7600000500679016, 192.0, 0.0, 0.0, 0.0, 0.0, 0.0, 0.0, 0.0, 0.0, 0.0, 1.6137590881311865E9, 2021-02-19 16:24:48.131
24.0, -13883.47265625, 20153.427734375, -14269.15234375, 135572.15625, -187500.015625, 87006.265625, -187500.015625, -187500.015625, -0.09600000083446503, -0.6460000276565552, 0.7600000500679016, 192.0, 0.0, 0.0, 0.0, 0.0, 0.0, 0.0, 0.0, 0.0, 0.0, 1.6137590881341896E9, 2021-02-19 16:24:48.134
25.0, -13848.201171875, 20381.416015625, -14044.5390625, 135802.5625, -187500.015625, 84147.7890625, -187500.015625, -187500.015625, -0.09600000083446503, -0.6460000276565552, 0.7600000500679016, 192.0, 0.0, 0.0, 0.0, 0.0, 0.0, 0.0, 0.0, 0.0, 0.0, 1.6137590881371577E9, 2021-02-19 16:24:48.137
26.0, -13615.810546875, 20293.103515625, -14126.5478515625, 135725.4375, -187500.015625, 83156.5546875, -187500.015625, -187500.015625, -0.09600000083446503, -0.6460000276565552, 0.7600000500679016, 192.0, 0.0, 0.0, 0.0, 0.0, 0.0, 0.0, 0.0, 0.0, 0.0, 1.613759088140165E9, 2021-02-19 16:24:48.140
27.0, -13598.15234375, 20071.12890625, -14343.9189453125, 135506.796875, -187500.015625, 84423.8125, -187500.015625, -187500.015625, -0.09600000083446503, -0.64000004529953, 0.7700000405311584, 192.0, 253.0, 0.0, 236.0, 0.0, 24.0, 16.0, 0.0, 0.0, 0.0, 1.613759088144172E9, 2021-02-19 16:24:48.144
28.0, -13841.18359375, 20093.14453125, -14325.880859375, 135517.421875, -187500.015625, 84213.34375, -187500.015625, -187500.015625, -0.09600000083446503, -0.64000004529953, 0.7700000405311584, 192.0, 0.0, 0.0, 0.0, 0.0, 0.0, 0.0, 0.0, 0.0, 0.0, 1.6137590881472933E9, 2021-02-19 16:24:48.147
29.0, -13898.158203125, 20339.7734375, -14083.0068359375, 135761.34375, -187500.015625, 81500.9140625, -187500.015625, -187500.015625, -0.09600000083446503, -0.64000004529953, 0.7700000405311584, 192.0, 0.0, 0.0, 0.0, 0.0, 0.0, 0.0, 0.0, 0.0, 0.0, 1.6137590881502256E9, 2021-02-19 16:24:48.150
64.0, -13769.03125, 19985.498046875, -14450.8720703125, 135384.84375, -187500.015625, 63043.94140625, -187500.015625, -187500.015625, -0.09600000083446503, -0.64000004529953, 0.7700000405311584, 192.0, 0.0, 0.0, 0.0, 0.0, 0.0, 0.0, 0.0, 0.0, 0.0, 1.6137590881541965E9, 2021-02-19 16:24:48.154
31.0, -13623.4326171875, 20023.384765625, -14390.1865234375, 135458.03125, -187500.015625, 81212.8671875, -187500.015625, -187500.015625, -0.09600000083446503, -0.64000004529953, 0.7700000405311584, 192.0, 0.0, 0.0, 0.0, 0.0, 0.0, 0.0, 0.0, 0.0, 0.0, 1.6137590881572669E9, 2021-02-19 16:24:48.157
61.0, -13867.22265625, 19904.763671875, -14528.7900390625, 135304.875, -187500.015625, 66248.1796875, -187500.015625, -187500.015625, -0.09600000083446503, -0.64000004529953, 0.7700000405311584, 192.0, 0.0, 0.0, 0.0, 0.0, 0.0, 0.0, 0.0, 0.0, 0.0, 1.6137590881603172E9, 2021-02-19 16:24:48.160
39.0, -13687.89453125, 20058.857421875, -14357.330078125, 135486.96875, -187500.015625, 75607.765625, -187500.015625, -187500.015625, -0.09600000083446503, -0.64000004529953, 0.7700000405311584, 192.0, 0.0, 0.0, 0.0, 0.0, 0.0, 0.0, 0.0, 0.0, 0.0, 1.6137590881642404E9, 2021-02-19 16:24:48.164
43.0, -13691.404296875, 20139.255859375, -14272.572265625, 135559.75, -187500.015625, 73033.2265625, -187500.015625, -187500.015625, -0.09600000083446503, -0.64000004529953, 0.7700000405311584, 192.0, 0.0, 0.0, 0.0, 0.0, 0.0, 0.0, 0.0, 0.0, 0.0, 1.6137590881692083E9, 2021-02-19 16:24:48.169
35.0, -13692.87890625, 19998.126953125, -14419.646484375, 135428.828125, -187500.015625, 78317.7578125, -187500.015625, -187500.015625, -0.09600000083446503, -0.64000004529953, 0.7700000405311584, 192.0, 0.0, 0.0, 0.0, 0.0, 0.0, 0.0, 0.0, 0.0, 0.0, 1.6137590881744113E9, 2021-02-19 16:24:48.174
57.0, -13976.3662109375, 19868.017578125, -14555.3662109375, 135274.5, -187500.015625, 68183.6796875, -187500.015625, -187500.015625, -0.10200000554323196, -0.6340000033378601, 0.7660000324249268, 192.0, 252.0, 208.0, 236.0, 48.0, 23.0, 240.0, 0.0, 0.0, 0.0, 1.6137590881792133E9, 2021-02-19 16:24:48.179
55.0, -13830.0068359375, 20195.44921875, -14227.6220703125, 135602.515625, -187500.015625, 66238.2109375, -187500.015625, -187500.015625, -0.10200000554323196, -0.6340000033378601, 0.7660000324249268, 192.0, 0.0, 0.0, 0.0, 0.0, 0.0, 0.0, 0.0, 0.0, 0.0, 1.6137590882282596E9, 2021-02-19 16:24:48.228
40.0, -13815.322265625, 19922.48828125, -14487.4833984375, 135345.640625, -187500.015625, 76831.8203125, -187500.015625, -187500.015625, -0.10200000554323196, -0.6340000033378601, 0.7660000324249268, 192.0, 0.0, 0.0, 0.0, 0.0, 0.0, 0.0, 0.0, 0.0, 0.0, 1.613759088232296E9, 2021-02-19 16:24:48.232
41.0, -14029.384765625, 20141.693359375, -14270.3369140625, 135552.390625, -187500.015625, 75346.390625, -187500.015625, -187500.015625, -0.10200000554323196, -0.6340000033378601, 0.7660000324249268, 192.0, 0.0, 0.0, 0.0, 0.0, 0.0, 0.0, 0.0, 0.0, 0.0, 1.6137590882373405E9, 2021-02-19 16:24:48.237
53.0, -13998.0703125, 19951.63671875, -14469.53515625, 135357.359375, -187500.015625, 70062.0078125, -187500.015625, -187500.015625, -0.10200000554323196, -0.6340000033378601, 0.7660000324249268, 192.0, 0.0, 0.0, 0.0, 0.0, 0.0, 0.0, 0.0, 0.0, 0.0, 1.6137590882412755E9, 2021-02-19 16:24:48.241
45.0, -14014.5205078125, 20087.421875, -14331.9599609375, 135491.21875, -187500.015625, 73534.328125, -187500.015625, -187500.015625, -0.10200000554323196, -0.6340000033378601, 0.7660000324249268, 192.0, 0.0, 0.0, 0.0, 0.0, 0.0, 0.0, 0.0, 0.0, 0.0, 1.6137590882925236E9, 2021-02-19 16:24:48.292
46.0, -13945.07421875, 20288.431640625, -14132.8291015625, 135697.84375, -187500.015625, 70956.90625, -187500.015625, -187500.015625, -0.10200000554323196, -0.6340000033378601, 0.7660000324249268, 192.0, 0.0, 0.0, 0.0, 0.0, 0.0, 0.0, 0.0, 0.0, 0.0, 1.6137590883163953E9, 2021-02-19 16:24:48.316
51.0, -13773.8369140625, 20173.65625, -14248.4765625, 135590.921875, -187500.015625, 68385.6328125, -187500.015625, -187500.015625, -0.10200000554323196, -0.6340000033378601, 0.7660000324249268, 192.0, 0.0, 0.0, 0.0, 0.0, 0.0, 0.0, 0.0, 0.0, 0.0, 1.613759088323711E9, 2021-02-19 16:24:48.323
48.0, -13794.8251953125, 19886.01171875, -14529.6611328125, 135305.859375, -187500.015625, 72167.09375, -187500.015625, -187500.015625, -0.10200000554323196, -0.6340000033378601, 0.7660000324249268, 192.0, 0.0, 0.0, 0.0, 0.0, 0.0, 0.0, 0.0, 0.0, 0.0, 1.613759088329435E9, 2021-02-19 16:24:48.329
65.0, -13869.681640625, 19849.66796875, -14586.79296875, 135244.171875, -187500.015625, 64546.76171875, -187500.015625, -187500.015625, -0.10200000554323196, -0.6340000033378601, 0.7660000324249268, 192.0, 0.0, 0.0, 0.0, 0.0, 0.0, 0.0, 0.0, 0.0, 0.0, 1.6137590883324764E9, 2021-02-19 16:24:48.332
66.0, -14071.71875, 20057.6953125, -14385.91796875, 135437.0625, -187500.015625, 63381.609375, -187500.015625, -187500.015625, -0.10200000554323196, -0.6340000033378601, 0.7660000324249268, 192.0, 0.0, 0.0, 0.0, 0.0, 0.0, 0.0, 0.0, 0.0, 0.0, 1.6137590883366354E9, 2021-02-19 16:24:48.336
67.0, -13932.5126953125, 20236.375, -14208.6015625, 135618.3125, -187500.015625, 60984.36328125, -187500.015625, -187500.015625, -0.09200000762939453, -0.6420000195503235, 0.7640000581741333, 192.0, 253.0, 32.0, 235.0, 240.0, 23.0, 224.0, 0.0, 0.0, 0.0, 1.6137590883396037E9, 2021-02-19 16:24:48.339
68.0, -13725.490234375, 20070.369140625, -14367.2314453125, 135463.390625, -187500.015625, 61086.33203125, -187500.015625, -187500.015625, -0.09200000762939453, -0.6420000195503235, 0.7640000581741333, 192.0, 0.0, 0.0, 0.0, 0.0, 0.0, 0.0, 0.0, 0.0, 0.0, 1.613759088342392E9, 2021-02-19 16:24:48.342
69.0, -13765.6123046875, 19875.103515625, -14558.5625, 135271.71875, -187500.015625, 62564.07421875, -187500.015625, -187500.015625, -0.09200000762939453, -0.6420000195503235, 0.7640000581741333, 192.0, 0.0, 0.0, 0.0, 0.0, 0.0, 0.0, 0.0, 0.0, 0.0, 1.6137590883494265E9, 2021-02-19 16:24:48.349
70.0, -14024.7353515625, 19980.267578125, -14456.7724609375, 135366.609375, -187500.015625, 62039.76953125, -187500.015625, -187500.015625, -0.09200000762939453, -0.6420000195503235, 0.7640000581741333, 192.0, 0.0, 0.0, 0.0, 0.0, 0.0, 0.0, 0.0, 0.0, 0.0, 1.613759088353494E9, 2021-02-19 16:24:48.353
94.0, -13879.2255859375, 19850.830078125, -14577.6279296875, 135239.765625, -187500.015625, 52782.03515625, -187500.015625, -187500.015625, -0.09200000762939453, -0.6420000195503235, 0.7640000581741333, 192.0, 0.0, 0.0, 0.0, 0.0, 0.0, 0.0, 0.0, 0.0, 0.0, 1.6137590883594997E9, 2021-02-19 16:24:48.359
111.0, -13988.9951171875, 19825.416015625, -14601.6337890625, 135203.90625, -187500.015625, 45740.54296875, -187500.015625, -187500.015625, -0.09200000762939453, -0.6420000195503235, 0.7640000581741333, 192.0, 0.0, 0.0, 0.0, 0.0, 0.0, 0.0, 0.0, 0.0, 0.0, 1.613759088409481E9, 2021-02-19 16:24:48.409
92.0, -14055.513671875, 20162.390625, -14271.0068359375, 135544.390625, -187500.015625, 51405.8828125, -187500.015625, -187500.015625, -0.09200000762939453, -0.6420000195503235, 0.7640000581741333, 192.0, 0.0, 0.0, 0.0, 0.0, 0.0, 0.0, 0.0, 0.0, 0.0, 1.6137590884347556E9, 2021-02-19 16:24:48.434
74.0, -14076.3232421875, 19858.138671875, -14572.353515625, 135246.125, -187500.015625, 61067.84765625, -187500.015625, -187500.015625, -0.09200000762939453, -0.6420000195503235, 0.7640000581741333, 192.0, 0.0, 0.0, 0.0, 0.0, 0.0, 0.0, 0.0, 0.0, 0.0, 1.613759088455731E9, 2021-02-19 16:24:48.455
108.0, -14212.2890625, 20080.337890625, -14355.630859375, 135448.28125, -187500.015625, 45263.421875, -187500.015625, -187500.015625, -0.09200000762939453, -0.6420000195503235, 0.7640000581741333, 192.0, 0.0, 0.0, 0.0, 0.0, 0.0, 0.0, 0.0, 0.0, 0.0, 1.6137590884626307E9, 2021-02-19 16:24:48.462
90.0, -13900.482421875, 19798.615234375, -14627.0703125, 135191.34375, -187500.015625, 54938.08203125, -187500.015625, -187500.015625, -0.09200000762939453, -0.6420000195503235, 0.7640000581741333, 192.0, 0.0, 0.0, 0.0, 0.0, 0.0, 0.0, 0.0, 0.0, 0.0, 1.6137590884665956E9, 2021-02-19 16:24:48.466
77.0, -13731.9501953125, 19876.6015625, -14552.884765625, 135276.984375, -187500.015625, 59402.23828125, -187500.015625, -187500.015625, -0.09400000423192978, -0.6440000534057617, 0.7640000581741333, 192.0, 253.0, 16.0, 235.0, 224.0, 23.0, 224.0, 0.0, 0.0, 0.0, 1.6137590884696467E9, 2021-02-19 16:24:48.469
106.0, -13828.21875, 19968.130859375, -14463.142578125, 135355.46875, -187500.015625, 45906.8828125, -187500.015625, -187500.015625, -0.10200000554323196, -0.6420000195503235, 0.7680000066757202, 192.0, 252.0, 208.0, 235.0, 240.0, 24.0, 0.0, 0.0, 0.0, 0.0, 1.613759088472754E9, 2021-02-19 16:24:48.472
88.0, -13973.9970703125, 20169.9453125, -14266.3134765625, 135554.359375, -187500.015625, 53087.08984375, -187500.015625, -187500.015625, -0.10200000554323196, -0.6420000195503235, 0.7680000066757202, 192.0, 0.0, 0.0, 0.0, 0.0, 0.0, 0.0, 0.0, 0.0, 0.0, 1.6137590884766114E9, 2021-02-19 16:24:48.476
80.0, -13801.375, 20155.08203125, -14275.611328125, 135550.34375, -187500.015625, 56414.39453125, -187500.015625, -187500.015625, -0.10200000554323196, -0.6420000195503235, 0.7680000066757202, 192.0, 0.0, 0.0, 0.0, 0.0, 0.0, 0.0, 0.0, 0.0, 0.0, 1.6137590884815726E9, 2021-02-19 16:24:48.481
104.0, -14193.4462890625, 20153.560546875, -14288.93359375, 135522.515625, -187500.015625, 46330.89453125, -187500.015625, -187500.015625, -0.10200000554323196, -0.6420000195503235, 0.7680000066757202, 192.0, 0.0, 0.0, 0.0, 0.0, 0.0, 0.0, 0.0, 0.0, 0.0, 1.6137590885056703E9, 2021-02-19 16:24:48.505
102.0, -13843.4853515625, 19926.6015625, -14504.962890625, 135316.40625, -187500.015625, 47940.37890625, -187500.015625, -187500.015625, -0.10200000554323196, -0.6420000195503235, 0.7680000066757202, 192.0, 0.0, 0.0, 0.0, 0.0, 0.0, 0.0, 0.0, 0.0, 0.0, 1.6137590885107782E9, 2021-02-19 16:24:48.510
83.0, -14120.580078125, 20046.876953125, -14385.3359375, 135429.296875, -187500.015625, 56771.6171875, -187500.015625, -187500.015625, -0.10200000554323196, -0.6420000195503235, 0.7680000066757202, 192.0, 0.0, 0.0, 0.0, 0.0, 0.0, 0.0, 0.0, 0.0, 0.0, 1.6137590885647247E9, 2021-02-19 16:24:48.564
84.0, -13936.177734375, 20128.169921875, -14304.736328125, 135517.234375, -187500.015625, 54857.39453125, -187500.015625, -187500.015625, -0.10200000554323196, -0.6420000195503235, 0.7680000066757202, 192.0, 0.0, 0.0, 0.0, 0.0, 0.0, 0.0, 0.0, 0.0, 0.0, 1.6137590885718324E9, 2021-02-19 16:24:48.571
120.0, -14219.44140625, 19953.736328125, -14479.0126953125, 135316.875, -187500.015625, 42318.9140625, -187500.015625, -187500.015625, -0.10200000554323196, -0.6420000195503235, 0.7680000066757202, 192.0, 0.0, 0.0, 0.0, 0.0, 0.0, 0.0, 0.0, 0.0, 0.0, 1.6137590886318297E9, 2021-02-19 16:24:48.631
96.0, -14072.7919921875, 20229.736328125, -14210.27734375, 135605.84375, -187500.015625, 49584.8828125, -187500.015625, -187500.015625, -0.10200000554323196, -0.6420000195503235, 0.7720000147819519, 192.0, 252.0, 208.0, 235.0, 240.0, 24.0, 32.0, 0.0, 0.0, 0.0, 1.6137590886368437E9, 2021-02-19 16:24:48.636
140.0, -13971.896484375, 19984.984375, -14440.1201171875, 135345.59375, -187500.015625, 27951.81640625, -187500.015625, -187500.015625, -0.10200000554323196, -0.6420000195503235, 0.7720000147819519, 192.0, 0.0, 0.0, 0.0, 0.0, 0.0, 0.0, 0.0, 0.0, 0.0, 1.6137590886438124E9, 2021-02-19 16:24:48.643
114.0, -13913.5361328125, 19983.642578125, -14445.865234375, 135361.3125, -187500.015625, 42981.5546875, -187500.015625, -187500.015625, -0.10200000554323196, -0.6420000195503235, 0.7720000147819519, 192.0, 0.0, 0.0, 0.0, 0.0, 0.0, 0.0, 0.0, 0.0, 0.0, 1.613759088678069E9, 2021-02-19 16:24:48.678
112.0, -14231.7353515625, 19984.291015625, -14447.8984375, 135352.390625, -187500.015625, 44573.69140625, -187500.015625, -187500.015625, -0.10200000554323196, -0.6420000195503235, 0.7720000147819519, 192.0, 0.0, 0.0, 0.0, 0.0, 0.0, 0.0, 0.0, 0.0, 0.0, 1.6137590886899292E9, 2021-02-19 16:24:48.689
137.0, -14242.6875, 20173.87890625, -14256.322265625, 135526.015625, -187500.015625, 29263.21484375, -187500.015625, -187500.015625, -0.10200000554323196, -0.6420000195503235, 0.7720000147819519, 192.0, 0.0, 0.0, 0.0, 0.0, 0.0, 0.0, 0.0, 0.0, 0.0, 1.6137590886940005E9, 2021-02-19 16:24:48.694
118.0, -13927.505859375, 20034.11328125, -14395.640625, 135410.953125, -187500.015625, 41089.94921875, -187500.015625, -187500.015625, -0.10200000554323196, -0.6420000195503235, 0.7720000147819519, 192.0, 0.0, 0.0, 0.0, 0.0, 0.0, 0.0, 0.0, 0.0, 0.0, 1.613759088704888E9, 2021-02-19 16:24:48.704
177.0, -13931.8193359375, 20006.599609375, -14419.04296875, 135359.34375, -187500.015625, 2679.83984375, -187500.015625, -187500.015625, -0.10200000554323196, -0.6420000195503235, 0.7720000147819519, 192.0, 0.0, 0.0, 0.0, 0.0, 0.0, 0.0, 0.0, 0.0, 0.0, 1.6137590887198887E9, 2021-02-19 16:24:48.719
122.0, -13950.416015625, 20165.630859375, -14265.798828125, 135535.90625, -187500.015625, 38860.13671875, -187500.015625, -187500.015625, -0.10200000554323196, -0.6420000195503235, 0.7720000147819519, 192.0, 0.0, 0.0, 0.0, 0.0, 0.0, 0.0, 0.0, 0.0, 0.0, 1.6137590887549975E9, 2021-02-19 16:24:48.754
150.0, -14252.74609375, 20263.80078125, -14170.9384765625, 135608.09375, -187500.015625, 20033.779296875, -187500.015625, -187500.015625, -0.10200000554323196, -0.6420000195503235, 0.7720000147819519, 192.0, 0.0, 0.0, 0.0, 0.0, 0.0, 0.0, 0.0, 0.0, 0.0, 1.613759088762038E9, 2021-02-19 16:24:48.762
124.0, -14220.3583984375, 19956.642578125, -14473.1337890625, 135317.5625, -187500.015625, 40030.09375, -187500.015625, -187500.015625, -0.10200000554323196, -0.6420000195503235, 0.7720000147819519, 192.0, 0.0, 0.0, 0.0, 0.0, 0.0, 0.0, 0.0, 0.0, 0.0, 1.6137590887689624E9, 2021-02-19 16:24:48.768
175.0, -14281.736328125, 20207.451171875, -14228.3828125, 135544.0625, -187500.015625, 3347.12890625, -187500.015625, -187500.015625, -0.09200000762939453, -0.6440000534057617, 0.7680000066757202, 192.0, 253.0, 32.0, 235.0, 224.0, 24.0, 0.0, 0.0, 0.0, 0.0, 1.6137590887719877E9, 2021-02-19 16:24:48.771
143.0, -13938.546875, 20201.416015625, -14229.3212890625, 135560.984375, -187500.015625, 23783.439453125, -187500.015625, -187500.015625, -0.09200000762939453, -0.6440000534057617, 0.7680000066757202, 192.0, 0.0, 0.0, 0.0, 0.0, 0.0, 0.0, 0.0, 0.0, 0.0, 1.6137590887910364E9, 2021-02-19 16:24:48.791
173.0, -13881.2373046875, 20044.439453125, -14380.8212890625, 135398.65625, -187500.015625, 5302.63818359375, -187500.015625, -187500.015625, -0.09200000762939453, -0.6440000534057617, 0.7680000066757202, 192.0, 0.0, 0.0, 0.0, 0.0, 0.0, 0.0, 0.0, 0.0, 0.0, 1.61375908879598E9, 2021-02-19 16:24:48.795
153.0, -14102.609375, 20015.181640625, -14414.5498046875, 135368.578125, -187500.015625, 20010.80078125, -187500.015625, -187500.015625, -0.09200000762939453, -0.6440000534057617, 0.7680000066757202, 192.0, 0.0, 0.0, 0.0, 0.0, 0.0, 0.0, 0.0, 0.0, 0.0, 1.6137590888000145E9, 2021-02-19 16:24:48.800
141.0, -14226.4599609375, 20106.01953125, -14324.6064453125, 135454.140625, -187500.015625, 27038.2109375, -187500.015625, -187500.015625, -0.09200000762939453, -0.6440000534057617, 0.7680000066757202, 192.0, 0.0, 0.0, 0.0, 0.0, 0.0, 0.0, 0.0, 0.0, 0.0, 1.6137590888740776E9, 2021-02-19 16:24:48.874
171.0, -14208.01953125, 20303.4296875, -14129.341796875, 135642.8125, -187500.015625, 5300.89501953125, -187500.015625, -187500.015625, -0.09200000762939453, -0.6440000534057617, 0.7680000066757202, 192.0, 0.0, 0.0, 0.0, 0.0, 0.0, 0.0, 0.0, 0.0, 0.0, 1.6137590888770993E9, 2021-02-19 16:24:48.877
151.0, -14036.7158203125, 20257.966796875, -14172.212890625, 135612.234375, -187500.015625, 18399.3515625, -187500.015625, -187500.015625, -0.09200000762939453, -0.6440000534057617, 0.7680000066757202, 192.0, 0.0, 0.0, 0.0, 0.0, 0.0, 0.0, 0.0, 0.0, 0.0, 1.6137590888802202E9, 2021-02-19 16:24:48.880
169.0, -13913.5576171875, 20019.763671875, -14400.7587890625, 135375.140625, -187500.015625, 8120.388671875, -187500.015625, -187500.015625, -0.09200000762939453, -0.6440000534057617, 0.7680000066757202, 192.0, 0.0, 0.0, 0.0, 0.0, 0.0, 0.0, 0.0, 0.0, 0.0, 1.613759088884063E9, 2021-02-19 16:24:48.884
163.0, -14161.4833984375, 20337.740234375, -14091.74609375, 135683.15625, -187500.015625, 10329.27734375, -187500.015625, -187500.015625, -0.09200000762939453, -0.6440000534057617, 0.7680000066757202, 192.0, 0.0, 0.0, 0.0, 0.0, 0.0, 0.0, 0.0, 0.0, 0.0, 1.6137590888951344E9, 2021-02-19 16:24:48.895
0.0, -14016.0634765625, 20122.470703125, -14310.9501953125, 135457.640625, -187500.015625, -39222.4140625, -187500.015625, -187500.015625, -0.09200000762939453, -0.6440000534057617, 0.7680000066757202, 192.0, 0.0, 0.0, 0.0, 0.0, 0.0, 0.0, 0.0, 0.0, 0.0, 1.61375908891211E9, 2021-02-19 16:24:48.912
1.0, -14095.724609375, 19971.05859375, -14461.064453125, 135303.90625, -187500.015625, -37803.6171875, -187500.015625, -187500.015625, -0.09200000762939453, -0.6440000534057617, 0.7680000066757202, 192.0, 0.0, 0.0, 0.0, 0.0, 0.0, 0.0, 0.0, 0.0, 0.0, 1.6137590889161186E9, 2021-02-19 16:24:48.916
2.0, -14338.2412109375, 20125.33203125, -14310.927734375, 135446.1875, -187500.015625, -38902.046875, -187500.015625, -187500.015625, -0.09200000762939453, -0.6440000534057617, 0.7680000066757202, 192.0, 0.0, 0.0, 0.0, 0.0, 0.0, 0.0, 0.0, 0.0, 0.0, 1.613759088977183E9, 2021-02-19 16:24:48.977
3.0, -14275.6337890625, 20283.783203125, -14151.537109375, 135609.5, -187500.015625, -41417.69140625, -187500.015625, -187500.015625, -0.09200000762939453, -0.6440000534057617, 0.7680000066757202, 192.0, 0.0, 0.0, 0.0, 0.0, 0.0, 0.0, 0.0, 0.0, 0.0, 1.613759088981243E9, 2021-02-19 16:24:48.981
4.0, -14053.4580078125, 20185.0546875, -14243.3583984375, 135519.765625, -187500.015625, -41779.9921875, -187500.015625, -187500.015625, -0.09200000762939453, -0.6440000534057617, 0.7680000066757202, 192.0, 0.0, 0.0, 0.0, 0.0, 0.0, 0.0, 0.0, 0.0, 0.0, 1.6137590889922092E9, 2021-02-19 16:24:48.992
5.0, -14049.6806640625, 19987.2421875, -14436.41015625, 135324.828125, -187500.015625, -40613.51953125, -187500.015625, -187500.015625, -0.09200000762939453, -0.6440000534057617, 0.7680000066757202, 192.0, 0.0, 0.0, 0.0, 0.0, 0.0, 0.0, 0.0, 0.0, 0.0, 1.6137590890232775E9, 2021-02-19 16:24:49.023
6.0, -14306.61328125, 20100.05078125, -14327.6015625, 135425.8125, -187500.015625, -41239.99609375, -187500.015625, -187500.015625, -0.09200000762939453, -0.6440000534057617, 0.7680000066757202, 192.0, 0.0, 0.0, 0.0, 0.0, 0.0, 0.0, 0.0, 0.0, 0.0, 1.6137590890262947E9, 2021-02-19 16:24:49.026
7.0, -14296.533203125, 20323.880859375, -14106.498046875, 135649.09375, -187500.015625, -43903.65234375, -187500.015625, -187500.015625, -0.09200000762939453, -0.6440000534057617, 0.7680000066757202, 192.0, 0.0, 0.0, 0.0, 0.0, 0.0, 0.0, 0.0, 0.0, 0.0, 1.613759089029385E9, 2021-02-19 16:24:49.029
8.0, -14063.0908203125, 20251.216796875, -14177.0185546875, 135587.0, -187500.015625, -44942.76171875, -187500.015625, -187500.015625, -0.09200000762939453, -0.64000004529953, 0.7700000405311584, 192.0, 253.0, 32.0, 236.0, 0.0, 24.0, 16.0, 0.0, 0.0, 0.0, 1.6137590890373476E9, 2021-02-19 16:24:49.037
9.0, -14046.193359375, 20052.375, -14371.544921875, 135391.421875, -187500.015625, -43924.640625, -187500.015625, -187500.015625, -0.09200000762939453, -0.64000004529953, 0.7700000405311584, 192.0, 0.0, 0.0, 0.0, 0.0, 0.0, 0.0, 0.0, 0.0, 0.0, 1.6137590890412917E9, 2021-02-19 16:24:49.041
10.0, -14270.828125, 20130.6953125, -14296.8681640625, 135457.671875, -187500.015625, -44400.26171875, -187500.015625, -187500.015625, -0.09200000762939453, -0.64000004529953, 0.7700000405311584, 192.0, 0.0, 0.0, 0.0, 0.0, 0.0, 0.0, 0.0, 0.0, 0.0, 1.6137590890452256E9, 2021-02-19 16:24:49.045
11.0, -14309.1396484375, 20399.005859375, -14032.89453125, 135720.8125, -187500.015625, -47289.44921875, -187500.015625, -187500.015625, -0.09200000762939453, -0.64000004529953, 0.7700000405311584, 192.0, 0.0, 0.0, 0.0, 0.0, 0.0, 0.0, 0.0, 0.0, 0.0, 1.613759089069286E9, 2021-02-19 16:24:49.069
12.0, -14064.2978515625, 20371.892578125, -14055.1787109375, 135703.421875, -187500.015625, -49008.27734375, -187500.015625, -187500.015625, -0.09200000762939453, -0.64000004529953, 0.7700000405311584, 192.0, 0.0, 0.0, 0.0, 0.0, 0.0, 0.0, 0.0, 0.0, 0.0, 1.613759089080335E9, 2021-02-19 16:24:49.080
13.0, -13989.3974609375, 20118.982421875, -14300.623046875, 135458.3125, -187500.015625, -48150.640625, -187500.015625, -187500.015625, -0.09200000762939453, -0.64000004529953, 0.7700000405311584, 192.0, 0.0, 0.0, 0.0, 0.0, 0.0, 0.0, 0.0, 0.0, 0.0, 1.6137590891044931E9, 2021-02-19 16:24:49.104
14.0, -14207.05859375, 20069.09375, -14351.853515625, 135400.453125, -187500.015625, -47948.2890625, -187500.015625, -187500.015625, -0.09200000762939453, -0.64000004529953, 0.7700000405311584, 192.0, 0.0, 0.0, 0.0, 0.0, 0.0, 0.0, 0.0, 0.0, 0.0, 1.6137590891113212E9, 2021-02-19 16:24:49.111
15.0, -14349.0595703125, 20311.23046875, -14115.7294921875, 135635.703125, -187500.015625, -50397.640625, -187500.015625, -187500.015625, -0.09200000762939453, -0.64000004529953, 0.7700000405311584, 192.0, 0.0, 0.0, 0.0, 0.0, 0.0, 0.0, 0.0, 0.0, 0.0, 1.613759089125314E9, 2021-02-19 16:24:49.125
16.0, -14138.1708984375, 20336.599609375, -14086.9404296875, 135670.609375, -187500.015625, -52400.3984375, -187500.015625, -187500.015625, -0.09200000762939453, -0.64000004529953, 0.7700000405311584, 192.0, 0.0, 0.0, 0.0, 0.0, 0.0, 0.0, 0.0, 0.0, 0.0, 1.6137590891295617E9, 2021-02-19 16:24:49.129
17.0, -14023.103515625, 20099.201171875, -14318.68359375, 135441.0, -187500.015625, -51722.42578125, -187500.015625, -187500.015625, -0.09200000762939453, -0.64000004529953, 0.7700000405311584, 192.0, 0.0, 0.0, 0.0, 0.0, 0.0, 0.0, 0.0, 0.0, 0.0, 1.6137590891323776E9, 2021-02-19 16:24:49.132
18.0, -14201.3369140625, 20021.10546875, -14395.841796875, 135354.8125, -187500.015625, -51079.63671875, -187500.015625, -187500.015625, -0.09200000762939453, -0.6480000019073486, 0.7700000405311584, 192.0, 253.0, 32.0, 235.0, 192.0, 24.0, 16.0, 0.0, 0.0, 0.0, 1.6137590891354103E9, 2021-02-19 16:24:49.135
19.0, -14373.3779296875, 20260.470703125, -14162.712890625, 135585.09375, -187500.015625, -53167.3984375, -187500.015625, -187500.015625, -0.09200000762939453, -0.6480000019073486, 0.7700000405311584, 192.0, 0.0, 0.0, 0.0, 0.0, 0.0, 0.0, 0.0, 0.0, 0.0, 1.6137590891593907E9, 2021-02-19 16:24:49.159
20.0, -14200.30859375, 20336.421875, -14081.3525390625, 135668.046875, -187500.015625, -55484.5390625, -187500.015625, -187500.015625, -0.09200000762939453, -0.6480000019073486, 0.7700000405311584, 192.0, 0.0, 0.0, 0.0, 0.0, 0.0, 0.0, 0.0, 0.0, 0.0, 1.613759089190423E9, 2021-02-19 16:24:49.190
21.0, -14015.5048828125, 20172.806640625, -14233.1884765625, 135513.453125, -187500.015625, -55118.88671875, -187500.015625, -187500.015625, -0.09200000762939453, -0.6480000019073486, 0.7700000405311584, 192.0, 0.0, 0.0, 0.0, 0.0, 0.0, 0.0, 0.0, 0.0, 0.0, 1.6137590892786007E9, 2021-02-19 16:24:49.278
22.0, -14115.998046875, 20041.087890625, -14359.3408203125, 135379.578125, -187500.015625, -54124.48046875, -187500.015625, -187500.015625, -0.09200000762939453, -0.6480000019073486, 0.7700000405311584, 192.0, 0.0, 0.0, 0.0, 0.0, 0.0, 0.0, 0.0, 0.0, 0.0, 1.6137590892816665E9, 2021-02-19 16:24:49.281
23.0, -14366.494140625, 20239.458984375, -14160.857421875, 135565.890625, -187500.015625, -55890.0, -187500.015625, -187500.015625, -0.09200000762939453, -0.6480000019073486, 0.7700000405311584, 192.0, 0.0, 0.0, 0.0, 0.0, 0.0, 0.0, 0.0, 0.0, 0.0, 1.6137590892856429E9, 2021-02-19 16:24:49.285
24.0, -14248.7451171875, 20414.138671875, -13978.4453125, 135746.875, -187500.015625, -58783.09765625, -187500.015625, -187500.015625, -0.09200000762939453, -0.6480000019073486, 0.7700000405311584, 192.0, 0.0, 0.0, 0.0, 0.0, 0.0, 0.0, 0.0, 0.0, 0.0, 1.613759089320593E9, 2021-02-19 16:24:49.320
25.0, -14019.7509765625, 20272.40625, -14109.470703125, 135614.84375, -187500.015625, -59159.03125, -187500.015625, -187500.015625, -0.09200000762939453, -0.6480000019073486, 0.7700000405311584, 192.0, 0.0, 0.0, 0.0, 0.0, 0.0, 0.0, 0.0, 0.0, 0.0, 1.6137590893245993E9, 2021-02-19 16:24:49.324
101.0, -14095.658203125, 19944.037109375, -14373.6015625, 135300.78125, -187500.015625, -84862.84375, -187500.015625, -187500.015625, -0.09200000762939453, -0.6480000019073486, 0.7700000405311584, 192.0, 0.0, 0.0, 0.0, 0.0, 0.0, 0.0, 0.0, 0.0, 0.0, 1.6137590893276203E9, 2021-02-19 16:24:49.327
99.0, -14349.1044921875, 20232.57421875, -14096.5068359375, 135574.90625, -187500.015625, -85733.6015625, -187500.015625, -187500.015625, -0.09200000762939453, -0.6480000019073486, 0.7700000405311584, 192.0, 0.0, 0.0, 0.0, 0.0, 0.0, 0.0, 0.0, 0.0, 0.0, 1.613759089348687E9, 2021-02-19 16:24:49.348
28.0, -14226.638671875, 20431.193359375, -13956.25, 135758.453125, -187500.015625, -61980.15625, -187500.015625, -187500.015625, -0.09200000762939453, -0.6480000019073486, 0.7700000405311584, 192.0, 0.0, 0.0, 0.0, 0.0, 0.0, 0.0, 0.0, 0.0, 0.0, 1.613759089351632E9, 2021-02-19 16:24:49.351
29.0, -14015.59375, 20260.603515625, -14122.9267578125, 135599.921875, -187500.015625, -62518.6328125, -187500.015625, -187500.015625, -0.09200000762939453, -0.6480000019073486, 0.7700000405311584, 192.0, 0.0, 0.0, 0.0, 0.0, 0.0, 0.0, 0.0, 0.0, 0.0, 1.6137590893546505E9, 2021-02-19 16:24:49.354
97.0, -14158.623046875, 19906.931640625, -14417.2548828125, 135260.078125, -187500.015625, -82298.8046875, -187500.015625, -187500.015625, -0.09200000762939453, -0.6480000019073486, 0.7700000405311584, 192.0, 0.0, 0.0, 0.0, 0.0, 0.0, 0.0, 0.0, 0.0, 0.0, 1.6137590893786547E9, 2021-02-19 16:24:49.378
31.0, -14307.060546875, 20095.37890625, -14291.90625, 135425.703125, -187500.015625, -61599.484375, -187500.015625, -187500.015625, -0.09200000762939453, -0.6480000019073486, 0.7700000405311584, 192.0, 0.0, 0.0, 0.0, 0.0, 0.0, 0.0, 0.0, 0.0, 0.0, 1.6137590893817844E9, 2021-02-19 16:24:49.381
93.0, -14239.2001953125, 19811.3125, -14504.8291015625, 135161.515625, -187500.015625, -80045.796875, -187500.015625, -187500.015625, -0.09200000762939453, -0.6480000019073486, 0.7700000405311584, 192.0, 0.0, 0.0, 0.0, 0.0, 0.0, 0.0, 0.0, 0.0, 0.0, 1.61375908939566E9, 2021-02-19 16:24:49.395
37.0, -14123.3291015625, 20283.693359375, -14095.9931640625, 135622.09375, -187500.015625, -67606.3359375, -187500.015625, -187500.015625, -0.09200000762939453, -0.6440000534057617, 0.7720000147819519, 192.0, 253.0, 32.0, 235.0, 224.0, 24.0, 32.0, 0.0, 0.0, 0.0, 1.6137590893988001E9, 2021-02-19 16:24:49.398
58.0, -14093.66796875, 20158.880859375, -14201.828125, 135504.0, -187500.015625, -76403.984375, -187500.015625, -187500.015625, -0.09200000762939453, -0.6440000534057617, 0.7720000147819519, 192.0, 0.0, 0.0, 0.0, 0.0, 0.0, 0.0, 0.0, 0.0, 0.0, 1.6137590894016895E9, 2021-02-19 16:24:49.401
91.0, -14315.3310546875, 20148.509765625, -14171.0498046875, 135497.390625, -187500.015625, -82083.8515625, -187500.015625, -187500.015625, -0.09200000762939453, -0.6440000534057617, 0.7720000147819519, 192.0, 0.0, 0.0, 0.0, 0.0, 0.0, 0.0, 0.0, 0.0, 0.0, 1.6137590894117396E9, 2021-02-19 16:24:49.411
89.0, -14320.1806640625, 19785.361328125, -14531.94140625, 135132.9375, -187500.015625, -78757.421875, -187500.015625, -187500.015625, -0.09200000762939453, -0.6440000534057617, 0.7720000147819519, 192.0, 0.0, 0.0, 0.0, 0.0, 0.0, 0.0, 0.0, 0.0, 0.0, 1.613759089428711E9, 2021-02-19 16:24:49.428
51.0, -14095.3896484375, 19908.1171875, -14450.71484375, 135253.859375, -187500.015625, -71791.2109375, -187500.015625, -187500.015625, -0.09200000762939453, -0.6440000534057617, 0.7720000147819519, 192.0, 0.0, 0.0, 0.0, 0.0, 0.0, 0.0, 0.0, 0.0, 0.0, 1.6137590894629505E9, 2021-02-19 16:24:49.462
62.0, -14158.041015625, 20141.87109375, -14210.232421875, 135486.53125, -187500.015625, -77128.875, -187500.015625, -187500.015625, -0.09200000762939453, -0.6440000534057617, 0.7720000147819519, 192.0, 0.0, 0.0, 0.0, 0.0, 0.0, 0.0, 0.0, 0.0, 0.0, 1.61375908950379E9, 2021-02-19 16:24:49.503
54.0, -14042.974609375, 20165.251953125, -14196.576171875, 135508.765625, -187500.015625, -75284.9609375, -187500.015625, -187500.015625, -0.09200000762939453, -0.6440000534057617, 0.7720000147819519, 192.0, 0.0, 0.0, 0.0, 0.0, 0.0, 0.0, 0.0, 0.0, 0.0, 1.613759089553892E9, 2021-02-19 16:24:49.553
87.0, -14256.568359375, 20114.2890625, -14210.7021484375, 135463.03125, -187500.015625, -81142.015625, -187500.015625, -187500.015625, -0.09200000762939453, -0.6440000534057617, 0.7580000162124634, 192.0, 253.0, 32.0, 235.0, 224.0, 23.0, 176.0, 0.0, 0.0, 0.0, 1.6137590895578454E9, 2021-02-19 16:24:49.557
59.0, -14009.0224609375, 19939.744140625, -14416.7177734375, 135290.203125, -187500.015625, -74746.8046875, -187500.015625, -187500.015625, -0.09200000762939453, -0.6440000534057617, 0.7580000162124634, 192.0, 0.0, 0.0, 0.0, 0.0, 0.0, 0.0, 0.0, 0.0, 0.0, 1.6137590896069067E9, 2021-02-19 16:24:49.606
112.0, -14241.837890625, 20179.98046875, -14140.5625, 135536.484375, -187500.015625, -90346.6171875, -187500.015625, -187500.015625, -0.09200000762939453, -0.6440000534057617, 0.7580000162124634, 192.0, 0.0, 0.0, 0.0, 0.0, 0.0, 0.0, 0.0, 0.0, 0.0, 1.6137590896099875E9, 2021-02-19 16:24:49.609
63.0, -14055.0888671875, 19906.9765625, -14438.869140625, 135258.015625, -187500.015625, -75720.2421875, -187500.015625, -187500.015625, -0.09200000762939453, -0.6440000534057617, 0.7580000162124634, 192.0, 0.0, 0.0, 0.0, 0.0, 0.0, 0.0, 0.0, 0.0, 0.0, 1.6137590896600006E9, 2021-02-19 16:24:49.660
110.0, -14278.0927734375, 19895.64453125, -14422.9091796875, 135244.796875, -187500.015625, -87347.578125, -187500.015625, -187500.015625, -0.09200000762939453, -0.6440000534057617, 0.7580000162124634, 192.0, 0.0, 0.0, 0.0, 0.0, 0.0, 0.0, 0.0, 0.0, 0.0, 1.6137590896850083E9, 2021-02-19 16:24:49.685
65.0, -14434.890625, 20068.267578125, -14286.072265625, 135403.28125, -187500.015625, -76239.609375, -187500.015625, -187500.015625, -0.09200000762939453, -0.6440000534057617, 0.7580000162124634, 192.0, 0.0, 0.0, 0.0, 0.0, 0.0, 0.0, 0.0, 0.0, 0.0, 1.6137590896880229E9, 2021-02-19 16:24:49.688
66.0, -14213.8984375, 20173.341796875, -14178.873046875, 135517.796875, -187500.015625, -77848.484375, -187500.015625, -187500.015625, -0.09200000762939453, -0.6440000534057617, 0.7580000162124634, 192.0, 0.0, 0.0, 0.0, 0.0, 0.0, 0.0, 0.0, 0.0, 0.0, 1.6137590897120652E9, 2021-02-19 16:24:49.712
108.0, -14175.0732421875, 20190.21875, -14131.30859375, 135543.59375, -187500.015625, -89676.0, -187500.015625, -187500.015625, -0.09200000762939453, -0.6440000534057617, 0.7580000162124634, 192.0, 0.0, 0.0, 0.0, 0.0, 0.0, 0.0, 0.0, 0.0, 0.0, 1.6137590897952685E9, 2021-02-19 16:24:49.795
79.0, -14170.0224609375, 20046.943359375, -14290.3193359375, 135395.328125, -187500.015625, -79456.625, -187500.015625, -187500.015625, -0.09200000762939453, -0.6440000534057617, 0.7580000162124634, 192.0, 0.0, 0.0, 0.0, 0.0, 0.0, 0.0, 0.0, 0.0, 0.0, 1.6137590898543644E9, 2021-02-19 16:24:49.854
119.0, -14555.544921875, 19845.2421875, -14484.8466796875, 135192.078125, -187500.015625, -87016.296875, -187500.015625, -187500.015625, -0.09200000762939453, -0.6440000534057617, 0.7580000162124634, 192.0, 0.0, 0.0, 0.0, 0.0, 0.0, 0.0, 0.0, 0.0, 0.0, 1.6137590898792315E9, 2021-02-19 16:24:49.879
230.0, -14284.9990234375, 19733.4375, -14583.931640625, 135098.5625, -187500.015625, -110731.03125, -187500.015625, -187500.015625, -0.09200000762939453, -0.6440000534057617, 0.7580000162124634, 192.0, 0.0, 0.0, 0.0, 0.0, 0.0, 0.0, 0.0, 0.0, 0.0, 1.6137590898942366E9, 2021-02-19 16:24:49.894
231.0, -14448.234375, 19667.455078125, -14652.775390625, 135025.234375, -187500.015625, -109216.03125, -187500.015625, -187500.015625, -0.09200000762939453, -0.6440000534057617, 0.7580000162124634, 192.0, 0.0, 0.0, 0.0, 0.0, 0.0, 0.0, 0.0, 0.0, 0.0, 1.6137590899004095E9, 2021-02-19 16:24:49.900
232.0, -14632.9267578125, 19908.318359375, -14418.1484375, 135259.078125, -187500.015625, -110326.59375, -187500.015625, -187500.015625, -0.09200000762939453, -0.6440000534057617, 0.7580000162124634, 192.0, 0.0, 0.0, 0.0, 0.0, 0.0, 0.0, 0.0, 0.0, 0.0, 1.6137590899213133E9, 2021-02-19 16:24:49.921
233.0, -14438.8017578125, 19981.296875, -14344.1416015625, 135339.984375, -187500.015625, -111500.0, -187500.015625, -187500.015625, -0.09200000762939453, -0.6440000534057617, 0.7580000162124634, 192.0, 0.0, 0.0, 0.0, 0.0, 0.0, 0.0, 0.0, 0.0, 0.0, 1.6137590899422846E9, 2021-02-19 16:24:49.942
234.0, -14255.9423828125, 19788.69140625, -14534.0205078125, 135152.8125, -187500.015625, -110110.703125, -187500.015625, -187500.015625, -0.08800000697374344, -0.6340000033378601, 0.7740000486373901, 192.0, 253.0, 64.0, 236.0, 48.0, 24.0, 48.0, 0.0, 0.0, 0.0, 1.6137590899533446E9, 2021-02-19 16:24:49.953
235.0, -14376.015625, 19652.79296875, -14672.82421875, 135010.125, -187500.015625, -108247.75, -187500.015625, -187500.015625, -0.08800000697374344, -0.6340000033378601, 0.7740000486373901, 192.0, 0.0, 0.0, 0.0, 0.0, 0.0, 0.0, 0.0, 0.0, 0.0, 1.6137590899583294E9, 2021-02-19 16:24:49.958
236.0, -14642.9853515625, 19806.572265625, -14525.9287109375, 135152.234375, -187500.015625, -108870.828125, -187500.015625, -187500.015625, -0.08800000697374344, -0.6340000033378601, 0.7740000486373901, 192.0, 0.0, 0.0, 0.0, 0.0, 0.0, 0.0, 0.0, 0.0, 0.0, 1.613759089963482E9, 2021-02-19 16:24:49.963
237.0, -14521.16796875, 19955.16796875, -14376.57421875, 135307.171875, -187500.015625, -110240.34375, -187500.015625, -187500.015625, -0.08800000697374344, -0.6340000033378601, 0.7740000486373901, 192.0, 0.0, 0.0, 0.0, 0.0, 0.0, 0.0, 0.0, 0.0, 0.0, 1.6137590900043645E9, 2021-02-19 16:24:50.004
238.0, -14278.986328125, 19821.4375, -14506.1474609375, 135182.5625, -187500.015625, -109243.6796875, -187500.015625, -187500.015625, -0.08800000697374344, -0.6340000033378601, 0.7740000486373901, 192.0, 0.0, 0.0, 0.0, 0.0, 0.0, 0.0, 0.0, 0.0, 0.0, 1.6137590900093937E9, 2021-02-19 16:24:50.009
239.0, -14335.0673828125, 19648.2109375, -14677.6748046875, 135005.890625, -187500.015625, -107174.84375, -187500.015625, -187500.015625, -0.08800000697374344, -0.6340000033378601, 0.7740000486373901, 192.0, 0.0, 0.0, 0.0, 0.0, 0.0, 0.0, 0.0, 0.0, 0.0, 1.6137590900143833E9, 2021-02-19 16:24:50.014
240.0, -14607.1328125, 19784.33203125, -14546.134765625, 135128.71875, -187500.015625, -107340.09375, -187500.015625, -187500.015625, -0.08800000697374344, -0.6340000033378601, 0.7740000486373901, 192.0, 0.0, 0.0, 0.0, 0.0, 0.0, 0.0, 0.0, 0.0, 0.0, 1.6137590900183723E9, 2021-02-19 16:24:50.018
241.0, -14558.2275390625, 19953.9375, -14377.736328125, 135300.53125, -187500.015625, -108840.96875, -187500.015625, -187500.015625, -0.08800000697374344, -0.6340000033378601, 0.7740000486373901, 192.0, 0.0, 0.0, 0.0, 0.0, 0.0, 0.0, 0.0, 0.0, 0.0, 1.613759090021423E9, 2021-02-19 16:24:50.021
242.0, -14334.2626953125, 19824.857421875, -14501.185546875, 135182.0, -187500.015625, -108380.8984375, -187500.015625, -187500.015625, -0.08800000697374344, -0.6340000033378601, 0.7740000486373901, 192.0, 0.0, 0.0, 0.0, 0.0, 0.0, 0.0, 0.0, 0.0, 0.0, 1.6137590900415127E9, 2021-02-19 16:24:50.041
243.0, -14322.9970703125, 19658.158203125, -14664.7333984375, 135017.40625, -187500.015625, -106383.484375, -187500.015625, -187500.015625, -0.08800000697374344, -0.6340000033378601, 0.7740000486373901, 192.0, 0.0, 0.0, 0.0, 0.0, 0.0, 0.0, 0.0, 0.0, 0.0, 1.6137590900445793E9, 2021-02-19 16:24:50.044
244.0, -14575.7734375, 19777.046875, -14550.7392578125, 135124.6875, -187500.015625, -106162.84375, -187500.015625, -187500.015625, -0.09200000762939453, -0.6380000114440918, 0.7680000066757202, 192.0, 253.0, 32.0, 236.0, 16.0, 24.0, 0.0, 0.0, 0.0, 0.0, 1.613759090054513E9, 2021-02-19 16:24:50.054
245.0, -14590.97265625, 19960.46484375, -14369.2880859375, 135309.46875, -187500.015625, -108033.328125, -187500.015625, -187500.015625, -0.09200000762939453, -0.6380000114440918, 0.7680000066757202, 192.0, 0.0, 0.0, 0.0, 0.0, 0.0, 0.0, 0.0, 0.0, 0.0, 1.613759090058404E9, 2021-02-19 16:24:50.058
246.0, -14357.5087890625, 19874.923828125, -14451.1396484375, 135234.4375, -187500.015625, -108226.5859375, -187500.015625, -187500.015625, -0.09200000762939453, -0.6380000114440918, 0.7680000066757202, 192.0, 0.0, 0.0, 0.0, 0.0, 0.0, 0.0, 0.0, 0.0, 0.0, 1.6137590900624344E9, 2021-02-19 16:24:50.062
247.0, -14294.1416015625, 19717.478515625, -14605.3671875, 135079.796875, -187500.015625, -106288.6640625, -187500.015625, -187500.015625, -0.09200000762939453, -0.6380000114440918, 0.7680000066757202, 192.0, 0.0, 0.0, 0.0, 0.0, 0.0, 0.0, 0.0, 0.0, 0.0, 1.61375909006644E9, 2021-02-19 16:24:50.066
248.0, -14519.1787109375, 19741.126953125, -14586.345703125, 135094.78125, -187500.015625, -105727.34375, -187500.015625, -187500.015625, -0.09200000762939453, -0.6380000114440918, 0.7680000066757202, 192.0, 0.0, 0.0, 0.0, 0.0, 0.0, 0.0, 0.0, 0.0, 0.0, 1.6137590900886033E9, 2021-02-19 16:24:50.088
249.0, -14654.1162109375, 19927.31640625, -14407.53125, 135276.53125, -187500.015625, -107459.765625, -187500.015625, -187500.015625, -0.09200000762939453, -0.6380000114440918, 0.7680000066757202, 192.0, 0.0, 0.0, 0.0, 0.0, 0.0, 0.0, 0.0, 0.0, 0.0, 1.6137590901135452E9, 2021-02-19 16:24:50.113
12.0, -14294.7666015625, 19724.810546875, -14602.103515625, 135081.0625, -187500.015625, -106384.21875, -187500.015625, -187500.015625, -0.09200000762939453, -0.6380000114440918, 0.7680000066757202, 192.0, 0.0, 0.0, 0.0, 0.0, 0.0, 0.0, 0.0, 0.0, 0.0, 1.613759090167591E9, 2021-02-19 16:24:50.167
251.0, -14285.6923828125, 19728.744140625, -14592.73828125, 135093.375, -187500.015625, -106600.1171875, -187500.015625, -187500.015625, -0.09200000762939453, -0.6380000114440918, 0.7680000066757202, 192.0, 0.0, 0.0, 0.0, 0.0, 0.0, 0.0, 0.0, 0.0, 0.0, 1.613759090217608E9, 2021-02-19 16:24:50.217
252.0, -14504.4931640625, 19702.81640625, -14617.99609375, 135056.390625, -187500.015625, -105656.4453125, -187500.015625, -187500.015625, -0.09200000762939453, -0.6380000114440918, 0.7680000066757202, 192.0, 0.0, 0.0, 0.0, 0.0, 0.0, 0.0, 0.0, 0.0, 0.0, 1.6137590902217455E9, 2021-02-19 16:24:50.221
27.0, -14460.0361328125, 20031.9453125, -14296.443359375, 135378.28125, -187500.015625, -109457.5390625, -187500.015625, -187500.015625, -0.09200000762939453, -0.6380000114440918, 0.7680000066757202, 192.0, 0.0, 0.0, 0.0, 0.0, 0.0, 0.0, 0.0, 0.0, 0.0, 1.6137590902397647E9, 2021-02-19 16:24:50.239
254.0, -14425.0556640625, 20014.623046875, -14306.8369140625, 135373.484375, -187500.015625, -108559.359375, -187500.015625, -187500.015625, -0.09000000357627869, -0.6440000534057617, 0.7680000066757202, 192.0, 253.0, 48.0, 235.0, 224.0, 24.0, 0.0, 0.0, 0.0, 0.0, 1.6137590902697754E9, 2021-02-19 16:24:50.269
15.0, -14350.1103515625, 19957.783203125, -14370.6064453125, 135310.140625, -187500.015625, -108435.1015625, -187500.015625, -187500.015625, -0.09000000357627869, -0.6440000534057617, 0.7680000066757202, 192.0, 0.0, 0.0, 0.0, 0.0, 0.0, 0.0, 0.0, 0.0, 0.0, 1.6137590902776957E9, 2021-02-19 16:24:50.277
25.0, -14356.3017578125, 19758.115234375, -14562.18359375, 135111.0, -187500.015625, -106613.8828125, -187500.015625, -187500.015625, -0.09000000357627869, -0.6440000534057617, 0.7680000066757202, 192.0, 0.0, 0.0, 0.0, 0.0, 0.0, 0.0, 0.0, 0.0, 0.0, 1.6137590902977831E9, 2021-02-19 16:24:50.297
8.0, -14302.03125, 19747.228515625, -14574.8125, 135104.359375, -187500.015625, -106211.1015625, -187500.015625, -187500.015625, -0.09600000083446503, -0.64000004529953, 0.7720000147819519, 192.0, 253.0, 0.0, 236.0, 0.0, 24.0, 32.0, 0.0, 0.0, 0.0, 1.613759090348876E9, 2021-02-19 16:24:50.348
2.0, -14458.806640625, 20065.47265625, -14266.0673828125, 135413.140625, -187500.015625, -108911.328125, -187500.015625, -187500.015625, -0.09600000083446503, -0.64000004529953, 0.7720000147819519, 192.0, 0.0, 0.0, 0.0, 0.0, 0.0, 0.0, 0.0, 0.0, 0.0, 1.6137590903738153E9, 2021-02-19 16:24:50.373
3.0, -14271.431640625, 19841.8671875, -14484.8466796875, 135199.015625, -187500.015625, -107933.7109375, -187500.015625, -187500.015625, -0.09600000083446503, -0.64000004529953, 0.7720000147819519, 192.0, 0.0, 0.0, 0.0, 0.0, 0.0, 0.0, 0.0, 0.0, 0.0, 1.6137590904090292E9, 2021-02-19 16:24:50.409
23.0, -14382.654296875, 20065.384765625, -14260.904296875, 135414.9375, -187500.015625, -109094.8828125, -187500.015625, -187500.015625, -0.09600000083446503, -0.64000004529953, 0.7720000147819519, 192.0, 0.0, 0.0, 0.0, 0.0, 0.0, 0.0, 0.0, 0.0, 0.0, 1.6137590904199157E9, 2021-02-19 16:24:50.419
13.0, -14558.0703125, 19800.380859375, -14529.5947265625, 135143.984375, -187500.015625, -106193.9609375, -187500.015625, -187500.015625, -0.09600000083446503, -0.64000004529953, 0.7720000147819519, 192.0, 0.0, 0.0, 0.0, 0.0, 0.0, 0.0, 0.0, 0.0, 0.0, 1.613759090470909E9, 2021-02-19 16:24:50.470
68.0, -14562.4296875, 20092.384765625, -14215.6640625, 135461.984375, -187500.015625, -112796.3046875, -187500.015625, -187500.015625, -0.09600000083446503, -0.64000004529953, 0.7720000147819519, 192.0, 0.0, 0.0, 0.0, 0.0, 0.0, 0.0, 0.0, 0.0, 0.0, 1.6137590905290215E9, 2021-02-19 16:24:50.529
17.0, -14508.025390625, 19766.072265625, -14565.15625, 135110.6875, -187500.015625, -105947.8046875, -187500.015625, -187500.015625, -0.09600000083446503, -0.64000004529953, 0.7720000147819519, 192.0, 0.0, 0.0, 0.0, 0.0, 0.0, 0.0, 0.0, 0.0, 0.0, 1.6137590905350387E9, 2021-02-19 16:24:50.535
66.0, -14219.93359375, 19860.73046875, -14444.7470703125, 135238.53125, -187500.015625, -111394.828125, -187500.015625, -187500.015625, -0.09600000083446503, -0.64000004529953, 0.7720000147819519, 192.0, 0.0, 0.0, 0.0, 0.0, 0.0, 0.0, 0.0, 0.0, 0.0, 1.6137590905389771E9, 2021-02-19 16:24:50.538
28.0, -14250.98046875, 19887.375, -14436.857421875, 135241.921875, -187500.015625, -108699.75, -187500.015625, -187500.015625, -0.09000000357627869, -0.6380000114440918, 0.7700000405311584, 192.0, 253.0, 48.0, 236.0, 16.0, 24.0, 16.0, 0.0, 0.0, 0.0, 1.6137590905430107E9, 2021-02-19 16:24:50.543
36.0, -14281.7802734375, 20004.296875, -14315.8896484375, 135359.453125, -187500.015625, -110929.265625, -187500.015625, -187500.015625, -0.09000000357627869, -0.6380000114440918, 0.7700000405311584, 192.0, 0.0, 0.0, 0.0, 0.0, 0.0, 0.0, 0.0, 0.0, 0.0, 1.613759090550184E9, 2021-02-19 16:24:50.550
81.0, -14499.7998046875, 20142.2734375, -14173.21875, 135517.859375, -187500.015625, -116842.6015625, -187500.015625, -187500.015625, -0.09000000357627869, -0.6380000114440918, 0.7700000405311584, 192.0, 0.0, 0.0, 0.0, 0.0, 0.0, 0.0, 0.0, 0.0, 0.0, 1.6137590905560129E9, 2021-02-19 16:24:50.556
63.0, -14554.5390625, 19767.748046875, -14542.6474609375, 135129.796875, -187500.015625, -109688.140625, -187500.015625, -187500.015625, -0.09000000357627869, -0.6380000114440918, 0.7700000405311584, 192.0, 0.0, 0.0, 0.0, 0.0, 0.0, 0.0, 0.0, 0.0, 0.0, 1.6137590905600133E9, 2021-02-19 16:24:50.560
78.0, -14200.8896484375, 19998.015625, -14310.5029296875, 135388.5625, -187500.015625, -115707.2421875, -187500.015625, -187500.015625, -0.09000000357627869, -0.6380000114440918, 0.7700000405311584, 192.0, 0.0, 0.0, 0.0, 0.0, 0.0, 0.0, 0.0, 0.0, 0.0, 1.6137590906190886E9, 2021-02-19 16:24:50.619
75.0, -14329.0771484375, 19792.9609375, -14512.00390625, 135176.078125, -187500.015625, -112921.921875, -187500.015625, -187500.015625, -0.09000000357627869, -0.6380000114440918, 0.7700000405311584, 192.0, 0.0, 0.0, 0.0, 0.0, 0.0, 0.0, 0.0, 0.0, 0.0, 1.613759090633109E9, 2021-02-19 16:24:50.633
113.0, -14473.3125, 19799.48828125, -14503.46484375, 135216.03125, -187500.015625, -119554.515625, -187500.015625, -187500.015625, -0.09000000357627869, -0.6380000114440918, 0.7700000405311584, 192.0, 0.0, 0.0, 0.0, 0.0, 0.0, 0.0, 0.0, 0.0, 0.0, 1.6137590906371207E9, 2021-02-19 16:24:50.637
144.0, -14446.4013671875, 20080.001953125, -14227.1982421875, 135537.4375, -187500.015625, -123479.953125, -187500.015625, -187500.015625, -0.09000000357627869, -0.6380000114440918, 0.7700000405311584, 192.0, 0.0, 0.0, 0.0, 0.0, 0.0, 0.0, 0.0, 0.0, 0.0, 1.6137590906562269E9, 2021-02-19 16:24:50.656
94.0, -14397.40625, 20084.115234375, -14227.130859375, 135473.5625, -187500.015625, -120006.7109375, -187500.015625, -187500.015625, -0.09000000357627869, -0.6380000114440918, 0.7700000405311584, 192.0, 0.0, 0.0, 0.0, 0.0, 0.0, 0.0, 0.0, 0.0, 0.0, 1.6137590906631956E9, 2021-02-19 16:24:50.663
142.0, -14411.755859375, 19752.03515625, -14551.119140625, 135208.0625, -187500.015625, -120578.3359375, -187500.015625, -187500.015625, -0.09000000357627869, -0.6380000114440918, 0.7700000405311584, 192.0, 0.0, 0.0, 0.0, 0.0, 0.0, 0.0, 0.0, 0.0, 0.0, 1.613759090669216E9, 2021-02-19 16:24:50.669
71.0, -14427.357421875, 19749.798828125, -14546.6044921875, 135130.3125, -187500.015625, -111904.5, -187500.015625, -187500.015625, -0.09000000357627869, -0.6380000114440918, 0.7700000405311584, 192.0, 0.0, 0.0, 0.0, 0.0, 0.0, 0.0, 0.0, 0.0, 0.0, 1.6137590906942148E9, 2021-02-19 16:24:50.694
109.0, -14520.5869140625, 19871.68359375, -14433.1015625, 135276.34375, -187500.015625, -119377.15625, -187500.015625, -187500.015625, -0.09000000357627869, -0.6380000114440918, 0.7700000405311584, 192.0, 0.0, 0.0, 0.0, 0.0, 0.0, 0.0, 0.0, 0.0, 0.0, 1.6137590907092736E9, 2021-02-19 16:24:50.709
158.0, -14289.3359375, 19752.705078125, -14544.5029296875, 135239.6875, -187500.015625, -121772.4296875, -187500.015625, -187500.015625, -0.09000000357627869, -0.6380000114440918, 0.7700000405311584, 192.0, 0.0, 0.0, 0.0, 0.0, 0.0, 0.0, 0.0, 0.0, 0.0, 1.6137590907122014E9, 2021-02-19 16:24:50.712
119.0, -14399.2392578125, 20054.521484375, -14252.9697265625, 135479.734375, -187500.015625, -122698.1328125, -187500.015625, -187500.015625, -0.09000000357627869, -0.6380000114440918, 0.7700000405311584, 192.0, 0.0, 0.0, 0.0, 0.0, 0.0, 0.0, 0.0, 0.0, 0.0, 1.61375909071626E9, 2021-02-19 16:24:50.716
156.0, -14591.93359375, 20043.45703125, -14260.4345703125, 135516.46875, -187500.015625, -123294.3671875, -187500.015625, -187500.015625, -0.09600000083446503, -0.6420000195503235, 0.7660000324249268, 192.0, 253.0, 0.0, 235.0, 240.0, 23.0, 240.0, 0.0, 0.0, 0.0, 1.6137590907193112E9, 2021-02-19 16:24:50.719
105.0, -14612.8544921875, 19862.02734375, -14444.412109375, 135258.65625, -187500.015625, -119209.71875, -187500.015625, -187500.015625, -0.09600000083446503, -0.6420000195503235, 0.7660000324249268, 192.0, 0.0, 0.0, 0.0, 0.0, 0.0, 0.0, 0.0, 0.0, 0.0, 1.6137590907242146E9, 2021-02-19 16:24:50.724
127.0, -14540.390625, 20043.79296875, -14265.4189453125, 135476.21875, -187500.015625, -122630.3125, -187500.015625, -187500.015625, -0.09600000083446503, -0.6420000195503235, 0.7660000324249268, 192.0, 0.0, 0.0, 0.0, 0.0, 0.0, 0.0, 0.0, 0.0, 0.0, 1.61375909072735E9, 2021-02-19 16:24:50.727
154.0, -14290.6767578125, 19747.787109375, -14545.0615234375, 135226.953125, -187500.015625, -121336.4609375, -187500.015625, -187500.015625, -0.09600000083446503, -0.6420000195503235, 0.7660000324249268, 192.0, 0.0, 0.0, 0.0, 0.0, 0.0, 0.0, 0.0, 0.0, 0.0, 1.6137590907852728E9, 2021-02-19 16:24:50.785
180.0, -14499.7998046875, 19838.580078125, -14468.015625, 135345.46875, -187500.015625, -122642.5234375, -187500.015625, -187500.015625, -0.09600000083446503, -0.6420000195503235, 0.7660000324249268, 192.0, 0.0, 0.0, 0.0, 0.0, 0.0, 0.0, 0.0, 0.0, 0.0, 1.6137590907894735E9, 2021-02-19 16:24:50.789
101.0, -14597.677734375, 19940.392578125, -14365.2197265625, 135331.890625, -187500.015625, -119096.171875, -187500.015625, -187500.015625, -0.09600000083446503, -0.6420000195503235, 0.7660000324249268, 192.0, 0.0, 0.0, 0.0, 0.0, 0.0, 0.0, 0.0, 0.0, 0.0, 1.6137590907932825E9, 2021-02-19 16:24:50.793
151.0, -14610.216796875, 19860.1953125, -14443.451171875, 135322.1875, -187500.015625, -121461.65625, -187500.015625, -187500.015625, -0.09600000083446503, -0.6420000195503235, 0.7660000324249268, 192.0, 0.0, 0.0, 0.0, 0.0, 0.0, 0.0, 0.0, 0.0, 0.0, 1.6137590907963388E9, 2021-02-19 16:24:50.796
178.0, -14246.1962890625, 20003.73828125, -14302.0087890625, 135517.578125, -187500.015625, -124559.0234375, -187500.015625, -187500.015625, -0.09600000083446503, -0.6420000195503235, 0.7660000324249268, 192.0, 0.0, 0.0, 0.0, 0.0, 0.0, 0.0, 0.0, 0.0, 0.0, 1.613759090800295E9, 2021-02-19 16:24:50.800
128.0, -14307.10546875, 19914.375, -14392.6005859375, 135357.421875, -187500.015625, -122291.21875, -187500.015625, -187500.015625, -0.09600000083446503, -0.6420000195503235, 0.7660000324249268, 192.0, 0.0, 0.0, 0.0, 0.0, 0.0, 0.0, 0.0, 0.0, 0.0, 1.613759090803452E9, 2021-02-19 16:24:50.803
176.0, -14554.248046875, 19880.9140625, -14429.212890625, 135379.84375, -187500.015625, -122578.5234375, -187500.015625, -187500.015625, -0.09600000083446503, -0.6420000195503235, 0.7660000324249268, 192.0, 0.0, 0.0, 0.0, 0.0, 0.0, 0.0, 0.0, 0.0, 0.0, 1.6137590908323376E9, 2021-02-19 16:24:50.832
145.0, -14242.642578125, 19871.638671875, -14428.2294921875, 135340.484375, -187500.015625, -122367.015625, -187500.015625, -187500.015625, -0.09600000083446503, -0.6420000195503235, 0.7660000324249268, 192.0, 0.0, 0.0, 0.0, 0.0, 0.0, 0.0, 0.0, 0.0, 0.0, 1.6137590908488045E9, 2021-02-19 16:24:50.848
174.0, -14261.552734375, 19894.392578125, -14411.0185546875, 135402.640625, -187500.015625, -124083.15625, -187500.015625, -187500.015625, -0.09600000083446503, -0.6420000195503235, 0.7660000324249268, 192.0, 0.0, 0.0, 0.0, 0.0, 0.0, 0.0, 0.0, 0.0, 0.0, 1.6137590908794148E9, 2021-02-19 16:24:50.879
164.0, -14626.8466796875, 20009.861328125, -14295.482421875, 135491.375, -187500.015625, -123056.1171875, -187500.015625, -187500.015625, -0.09600000083446503, -0.6420000195503235, 0.7660000324249268, 192.0, 0.0, 0.0, 0.0, 0.0, 0.0, 0.0, 0.0, 0.0, 0.0, 1.613759090890385E9, 2021-02-19 16:24:50.890
185.0, -14535.3388671875, 20085.232421875, -14228.6728515625, 135594.75, -187500.015625, -125392.3203125, -187500.015625, -187500.015625, -0.09200000762939453, -0.6380000114440918, 0.7680000066757202, 192.0, 253.0, 32.0, 236.0, 16.0, 24.0, 0.0, 0.0, 0.0, 0.0, 1.613759090910555E9, 2021-02-19 16:24:50.910
162.0, -14273.2197265625, 19785.853515625, -14513.2333984375, 135279.140625, -187500.015625, -122377.671875, -187500.015625, -187500.015625, -0.09200000762939453, -0.6380000114440918, 0.7680000066757202, 192.0, 0.0, 0.0, 0.0, 0.0, 0.0, 0.0, 0.0, 0.0, 0.0, 1.6137590909144473E9, 2021-02-19 16:24:50.914
192.0, -14345.7509765625, 19819.537109375, -14489.5625, 135339.0, -187500.015625, -125261.046875, -187500.015625, -187500.015625, -0.09200000762939453, -0.6380000114440918, 0.7680000066757202, 192.0, 0.0, 0.0, 0.0, 0.0, 0.0, 0.0, 0.0, 0.0, 0.0, 1.6137590909174476E9, 2021-02-19 16:24:50.917
222.0, -14487.3271484375, 19954.072265625, -14335.6708984375, 135522.046875, -187500.015625, -133231.71875, -187500.015625, -187500.015625, -0.09200000762939453, -0.6380000114440918, 0.7680000066757202, 192.0, 0.0, 0.0, 0.0, 0.0, 0.0, 0.0, 0.0, 0.0, 0.0, 1.6137590909366436E9, 2021-02-19 16:24:50.936
167.0, -14387.884765625, 19764.998046875, -14535.5849609375, 135260.0625, -187500.015625, -121616.4375, -187500.015625, -187500.015625, -0.09200000762939453, -0.6380000114440918, 0.7680000066757202, 192.0, 0.0, 0.0, 0.0, 0.0, 0.0, 0.0, 0.0, 0.0, 0.0, 1.6137590909394443E9, 2021-02-19 16:24:50.939
220.0, -14079.2958984375, 20006.666015625, -14288.3525390625, 135573.390625, -187500.015625, -134092.171875, -187500.015625, -187500.015625, -0.09200000762939453, -0.6380000114440918, 0.7680000066757202, 192.0, 0.0, 0.0, 0.0, 0.0, 0.0, 0.0, 0.0, 0.0, 0.0, 1.613759090952464E9, 2021-02-19 16:24:50.952
197.0, -14528.9462890625, 20015.919921875, -14303.4619140625, 135526.40625, -187500.015625, -127176.015625, -187500.015625, -187500.015625, -0.09200000762939453, -0.6380000114440918, 0.7680000066757202, 192.0, 0.0, 0.0, 0.0, 0.0, 0.0, 0.0, 0.0, 0.0, 0.0, 1.6137590909564831E9, 2021-02-19 16:24:50.956
187.0, -14162.109375, 19873.94140625, -14419.04296875, 135404.25, -187500.015625, -125173.0078125, -187500.015625, -187500.015625, -0.09200000762939453, -0.6380000114440918, 0.7680000066757202, 192.0, 0.0, 0.0, 0.0, 0.0, 0.0, 0.0, 0.0, 0.0, 0.0, 1.6137590909595828E9, 2021-02-19 16:24:50.959
218.0, -14422.865234375, 20046.98828125, -14254.5341796875, 135600.078125, -187500.015625, -132537.125, -187500.015625, -187500.015625, -0.09200000762939453, -0.6380000114440918, 0.7680000066757202, 192.0, 0.0, 0.0, 0.0, 0.0, 0.0, 0.0, 0.0, 0.0, 0.0, 1.6137590909626453E9, 2021-02-19 16:24:50.962
216.0, -14055.2900390625, 19936.1015625, -14363.521484375, 135496.6875, -187500.015625, -132598.359375, -187500.015625, -187500.015625, -0.09200000762939453, -0.6380000114440918, 0.7680000066757202, 192.0, 0.0, 0.0, 0.0, 0.0, 0.0, 0.0, 0.0, 0.0, 0.0, 1.6137590909695237E9, 2021-02-19 16:24:50.969
195.0, -14134.3037109375, 19986.013671875, -14325.724609375, 135512.65625, -187500.015625, -127856.1328125, -187500.015625, -187500.015625, -0.09200000762939453, -0.64000004529953, 0.7660000324249268, 192.0, 253.0, 32.0, 236.0, 0.0, 23.0, 240.0, 0.0, 0.0, 0.0, 1.6137590909725685E9, 2021-02-19 16:24:50.972
214.0, -14498.525390625, 20047.79296875, -14260.6806640625, 135588.0, -187500.015625, -131734.09375, -187500.015625, -187500.015625, -0.09200000762939453, -0.64000004529953, 0.7660000324249268, 192.0, 0.0, 0.0, 0.0, 0.0, 0.0, 0.0, 0.0, 0.0, 0.0, 1.613759090976498E9, 2021-02-19 16:24:50.976
205.0, -14402.1669921875, 19907.1328125, -14411.48828125, 135435.71875, -187500.015625, -128430.796875, -187500.015625, -187500.015625, -0.09800000488758087, -0.64000004529953, 0.7640000581741333, 192.0, 252.0, 240.0, 236.0, 0.0, 23.0, 224.0, 0.0, 0.0, 0.0, 1.6137590909797585E9, 2021-02-19 16:24:50.979
206.0, -14474.6982421875, 20126.6953125, -14193.513671875, 135653.96875, -187500.015625, -130534.96875, -187500.015625, -187500.015625, -0.09800000488758087, -0.64000004529953, 0.7640000581741333, 192.0, 0.0, 0.0, 0.0, 0.0, 0.0, 0.0, 0.0, 0.0, 0.0, 1.6137590909825425E9, 2021-02-19 16:24:50.982
212.0, -14012.8447265625, 19915.404296875, -14387.7275390625, 135473.296875, -187500.015625, -131126.265625, -187500.015625, -187500.015625, -0.09800000488758087, -0.64000004529953, 0.7640000581741333, 192.0, 0.0, 0.0, 0.0, 0.0, 0.0, 0.0, 0.0, 0.0, 0.0, 1.6137590909866226E9, 2021-02-19 16:24:50.986
208.0, -14063.3369140625, 19891.107421875, -14420.25, 135432.328125, -187500.015625, -129786.9453125, -187500.015625, -187500.015625, -0.09800000488758087, -0.64000004529953, 0.7640000581741333, 192.0, 0.0, 0.0, 0.0, 0.0, 0.0, 0.0, 0.0, 0.0, 0.0, 1.613759090989925E9, 2021-02-19 16:24:50.989
240.0, -14344.365234375, 20045.490234375, -14250.1533203125, 135646.546875, -187500.015625, -138135.046875, -187500.015625, -187500.015625, -0.09800000488758087, -0.64000004529953, 0.7640000581741333, 192.0, 0.0, 0.0, 0.0, 0.0, 0.0, 0.0, 0.0, 0.0, 0.0, 1.613759090992588E9, 2021-02-19 16:24:50.992
210.0, -14429.8837890625, 20102.017578125, -14214.1220703125, 135636.375, -187500.015625, -131084.796875, -187500.015625, -187500.015625, -0.09800000488758087, -0.64000004529953, 0.7640000581741333, 192.0, 0.0, 0.0, 0.0, 0.0, 0.0, 0.0, 0.0, 0.0, 0.0, 1.6137590909975834E9, 2021-02-19 16:24:50.997
223.0, -14464.193359375, 20114.177734375, -14176.5263671875, 135686.1875, -187500.015625, -135369.734375, -187500.015625, -187500.015625, -0.09800000488758087, -0.64000004529953, 0.7640000581741333, 192.0, 0.0, 0.0, 0.0, 0.0, 0.0, 0.0, 0.0, 0.0, 0.0, 1.6137590910006006E9, 2021-02-19 16:24:51.000
232.0, -14312.6708984375, 20067.955078125, -14224.828125, 135662.453125, -187500.015625, -137368.8125, -187500.015625, -187500.015625, -0.09800000488758087, -0.64000004529953, 0.7640000581741333, 192.0, 0.0, 0.0, 0.0, 0.0, 0.0, 0.0, 0.0, 0.0, 0.0, 1.613759091005829E9, 2021-02-19 16:24:51.005
230.0, -14365.8681640625, 19901.568359375, -14390.65625, 135485.078125, -187500.015625, -134545.21875, -187500.015625, -187500.015625, -0.09800000488758087, -0.64000004529953, 0.7640000581741333, 192.0, 0.0, 0.0, 0.0, 0.0, 0.0, 0.0, 0.0, 0.0, 0.0, 1.6137590910126233E9, 2021-02-19 16:24:51.012
237.0, -14114.90234375, 19854.2265625, -14434.80078125, 135460.46875, -187500.015625, -136540.953125, -187500.015625, -187500.015625, -0.09800000488758087, -0.64000004529953, 0.7640000581741333, 192.0, 0.0, 0.0, 0.0, 0.0, 0.0, 0.0, 0.0, 0.0, 0.0, 1.6137590910156233E9, 2021-02-19 16:24:51.015
245.0, -14099.501953125, 19907.447265625, -14377.46875, 135519.421875, -187500.015625, -137438.71875, -187500.015625, -187500.015625, -0.09800000488758087, -0.64000004529953, 0.7640000581741333, 192.0, 0.0, 0.0, 0.0, 0.0, 0.0, 0.0, 0.0, 0.0, 0.0, 1.6137590910286677E9, 2021-02-19 16:24:51.028
