%OpenBCI Raw EEG Data
%Number of channels = 8
%Sample Rate = 250 Hz
%Board = OpenBCI_GUI$BoardCytonSerial
Sample Index, EXG Channel 0, EXG Channel 1, EXG Channel 2, EXG Channel 3, EXG Channel 4, EXG Channel 5, EXG Channel 6, EXG Channel 7, Accel Channel 0, Accel Channel 1, Accel Channel 2, Other, Other, Other, Other, Other, Other, Other, Analog Channel 0, Analog Channel 1, Analog Channel 2, Timestamp, Timestamp (Formatted)
82.0, -12262.658203125, 20759.6953125, -13711.900390625, 137303.828125, -187500.015625, -162045.5, -187500.015625, -187500.015625, 0.0, 0.0, 0.0, 192.0, 0.0, 0.0, 0.0, 0.0, 0.0, 0.0, 0.0, 0.0, 0.0, 1.6137593900840929E9, 2021-02-19 16:29:50.084
129.0, -12026.2216796875, 20605.423828125, -13869.63671875, 137184.859375, -187500.015625, -140368.796875, -187500.015625, -187500.015625, 0.0, 0.0, 0.0, 192.0, 0.0, 0.0, 0.0, 0.0, 0.0, 0.0, 0.0, 0.0, 0.0, 1.613759390084097E9, 2021-02-19 16:29:50.084
111.0, -12595.4306640625, 20686.76171875, -13789.6396484375, 137257.046875, -187500.015625, -150155.5, -187500.015625, -187500.015625, 0.0, 0.0, 0.0, 192.0, 0.0, 0.0, 0.0, 0.0, 0.0, 0.0, 0.0, 0.0, 0.0, 1.6137593900841E9, 2021-02-19 16:29:50.084
109.0, -12314.55859375, 20444.537109375, -14027.0830078125, 137010.53125, -187500.015625, -149216.484375, -187500.015625, -187500.015625, 0.0, 0.0, 0.0, 192.0, 0.0, 0.0, 0.0, 0.0, 0.0, 0.0, 0.0, 0.0, 0.0, 1.6137593900841036E9, 2021-02-19 16:29:50.084
36.0, -12187.1318359375, 20946.736328125, -13522.693359375, 137478.203125, -187500.015625, -157080.703125, -187500.015625, -187500.015625, 0.0, 0.0, 0.0, 192.0, 0.0, 0.0, 0.0, 0.0, 0.0, 0.0, 0.0, 0.0, 0.0, 1.6137593900841072E9, 2021-02-19 16:29:50.084
21.0, -12169.98828125, 20577.775390625, -13881.7294921875, 137109.0625, -187500.015625, -152399.890625, -187500.015625, -187500.015625, 0.0, 0.0, 0.0, 192.0, 0.0, 0.0, 0.0, 0.0, 0.0, 0.0, 0.0, 0.0, 0.0, 1.6137593900841105E9, 2021-02-19 16:29:50.084
161.0, -12216.79296875, 21034.3984375, -13451.7041015625, 137620.046875, -187500.015625, -149890.28125, -187500.015625, -187500.015625, 0.0, 0.0, 0.0, 192.0, 0.0, 0.0, 0.0, 0.0, 0.0, 0.0, 0.0, 0.0, 0.0, 1.613759390084114E9, 2021-02-19 16:29:50.084
107.0, -12546.5703125, 20721.720703125, -13756.828125, 137289.234375, -187500.015625, -152064.953125, -187500.015625, -187500.015625, -0.10000000149011612, -0.6460000276565552, 0.7660000324249268, 192.0, 252.0, 224.0, 235.0, 208.0, 23.0, 240.0, 0.0, 0.0, 0.0, 1.6137593900841174E9, 2021-02-19 16:29:50.084
180.0, -11954.337890625, 20830.73046875, -13644.5771484375, 137436.3125, -187500.015625, -155933.78125, -187500.015625, -187500.015625, -0.10000000149011612, -0.6460000276565552, 0.7660000324249268, 192.0, 0.0, 0.0, 0.0, 0.0, 0.0, 0.0, 0.0, 0.0, 0.0, 1.6137593900841212E9, 2021-02-19 16:29:50.084
142.0, -11955.544921875, 20637.455078125, -13835.70703125, 137229.953125, -187500.015625, -143597.640625, -187500.015625, -187500.015625, -0.10000000149011612, -0.6460000276565552, 0.7660000324249268, 192.0, 0.0, 0.0, 0.0, 0.0, 0.0, 0.0, 0.0, 0.0, 0.0, 1.6137593900841248E9, 2021-02-19 16:29:50.084
159.0, -11899.4423828125, 20726.50390625, -13752.4462890625, 137318.34375, -187500.015625, -147348.484375, -187500.015625, -187500.015625, -0.10000000149011612, -0.6460000276565552, 0.7660000324249268, 192.0, 0.0, 0.0, 0.0, 0.0, 0.0, 0.0, 0.0, 0.0, 0.0, 1.6137593900841284E9, 2021-02-19 16:29:50.084
177.0, -12333.4462890625, 21012.62890625, -13470.45703125, 137605.3125, -187500.015625, -155715.453125, -187500.015625, -187500.015625, -0.10000000149011612, -0.6460000276565552, 0.7660000324249268, 192.0, 0.0, 0.0, 0.0, 0.0, 0.0, 0.0, 0.0, 0.0, 0.0, 1.613759390084132E9, 2021-02-19 16:29:50.084
208.0, -12154.4755859375, 20652.654296875, -13803.341796875, 137266.625, -187500.015625, -160292.890625, -187500.015625, -187500.015625, -0.10000000149011612, -0.6460000276565552, 0.7660000324249268, 192.0, 0.0, 0.0, 0.0, 0.0, 0.0, 0.0, 0.0, 0.0, 0.0, 1.6137593900841353E9, 2021-02-19 16:29:50.084
157.0, -12200.6103515625, 20959.341796875, -13525.576171875, 137548.03125, -187500.015625, -148793.640625, -187500.015625, -187500.015625, -0.10000000149011612, -0.6460000276565552, 0.7660000324249268, 192.0, 0.0, 0.0, 0.0, 0.0, 0.0, 0.0, 0.0, 0.0, 0.0, 1.613759390084139E9, 2021-02-19 16:29:50.084
206.0, -12481.90625, 20798.87890625, -13665.9228515625, 137403.25, -187500.015625, -160534.828125, -187500.015625, -187500.015625, -0.10000000149011612, -0.6460000276565552, 0.7660000324249268, 192.0, 0.0, 0.0, 0.0, 0.0, 0.0, 0.0, 0.0, 0.0, 0.0, 1.6137593900841424E9, 2021-02-19 16:29:50.084
173.0, -12353.16015625, 21007.419921875, -13478.90625, 137601.21875, -187500.015625, -154035.359375, -187500.015625, -187500.015625, -0.10000000149011612, -0.6460000276565552, 0.7660000324249268, 192.0, 0.0, 0.0, 0.0, 0.0, 0.0, 0.0, 0.0, 0.0, 0.0, 1.613759390084146E9, 2021-02-19 16:29:50.084
204.0, -12072.0205078125, 20682.0234375, -13773.6806640625, 137299.5, -187500.015625, -161210.75, -187500.015625, -187500.015625, -0.10000000149011612, -0.6460000276565552, 0.7660000324249268, 192.0, 0.0, 0.0, 0.0, 0.0, 0.0, 0.0, 0.0, 0.0, 0.0, 1.6137593900841496E9, 2021-02-19 16:29:50.084
0.0, 0.0, 0.0, 0.0, 0.0, 0.0, 0.0, 0.0, 0.0, -0.10200000554323196, -0.6360000371932983, 0.7700000405311584, 192.0, 252.0, 208.0, 236.0, 32.0, 24.0, 16.0, 0.0, 0.0, 0.0, 1.6137593901785152E9, 2021-02-19 16:29:50.178
201.0, -12105.056640625, 20718.189453125, -13748.423828125, 137324.109375, -187500.015625, -160668.265625, -187500.015625, -187500.015625, -0.10200000554323196, -0.6360000371932983, 0.7700000405311584, 192.0, 0.0, 0.0, 0.0, 0.0, 0.0, 0.0, 0.0, 0.0, 0.0, 1.6137593901845236E9, 2021-02-19 16:29:50.184
217.0, -12113.416015625, 20559.826171875, -13909.53515625, 137173.828125, -187500.015625, -155835.0, -187500.015625, -187500.015625, -0.10200000554323196, -0.6360000371932983, 0.7700000405311584, 192.0, 0.0, 0.0, 0.0, 0.0, 0.0, 0.0, 0.0, 0.0, 0.0, 1.6137593901895208E9, 2021-02-19 16:29:50.189
199.0, -12214.8701171875, 20894.23046875, -13577.365234375, 137505.09375, -187500.015625, -162658.125, -187500.015625, -187500.015625, -0.10200000554323196, -0.6360000371932983, 0.7700000405311584, 192.0, 0.0, 0.0, 0.0, 0.0, 0.0, 0.0, 0.0, 0.0, 0.0, 1.613759390259791E9, 2021-02-19 16:29:50.259
187.0, -11958.697265625, 20904.2890625, -13566.279296875, 137513.65625, -187500.015625, -160214.421875, -187500.015625, -187500.015625, -0.10200000554323196, -0.6360000371932983, 0.7700000405311584, 192.0, 0.0, 0.0, 0.0, 0.0, 0.0, 0.0, 0.0, 0.0, 0.0, 1.613759390280601E9, 2021-02-19 16:29:50.280
185.0, -12244.732421875, 20918.9296875, -13559.2607421875, 137513.8125, -187500.015625, -158715.65625, -187500.015625, -187500.015625, -0.10200000554323196, -0.6360000371932983, 0.7700000405311584, 192.0, 0.0, 0.0, 0.0, 0.0, 0.0, 0.0, 0.0, 0.0, 0.0, 1.6137593902846048E9, 2021-02-19 16:29:50.284
215.0, -12533.1591796875, 20859.65234375, -13615.20703125, 137459.828125, -187500.015625, -157878.765625, -187500.015625, -187500.015625, -0.09600000083446503, -0.6380000114440918, 0.7740000486373901, 192.0, 253.0, 0.0, 236.0, 16.0, 24.0, 48.0, 0.0, 0.0, 0.0, 1.6137593902898176E9, 2021-02-19 16:29:50.289
162.0, -11918.2626953125, 20901.31640625, -13579.6005859375, 137501.515625, -187500.015625, -149632.5625, -187500.015625, -187500.015625, -0.09600000083446503, -0.6380000114440918, 0.7740000486373901, 192.0, 0.0, 0.0, 0.0, 0.0, 0.0, 0.0, 0.0, 0.0, 0.0, 1.613759390293634E9, 2021-02-19 16:29:50.293
213.0, -12139.8359375, 20544.58203125, -13921.1572265625, 137151.65625, -187500.015625, -156986.359375, -187500.015625, -187500.015625, -0.09600000083446503, -0.6380000114440918, 0.7740000486373901, 192.0, 0.0, 0.0, 0.0, 0.0, 0.0, 0.0, 0.0, 0.0, 0.0, 1.6137593902977476E9, 2021-02-19 16:29:50.297
193.0, -12174.681640625, 20804.66796875, -13673.5, 137413.453125, -187500.015625, -160577.203125, -187500.015625, -187500.015625, -0.09600000083446503, -0.6380000114440918, 0.7740000486373901, 192.0, 0.0, 0.0, 0.0, 0.0, 0.0, 0.0, 0.0, 0.0, 0.0, 1.6137593903007197E9, 2021-02-19 16:29:50.300
211.0, -12534.455078125, 20794.05078125, -13676.71875, 137398.578125, -187500.015625, -159539.5, -187500.015625, -187500.015625, -0.09600000083446503, -0.6380000114440918, 0.7740000486373901, 192.0, 0.0, 0.0, 0.0, 0.0, 0.0, 0.0, 0.0, 0.0, 0.0, 1.6137593903067758E9, 2021-02-19 16:29:50.306
191.0, -11999.5556640625, 20895.68359375, -13579.3544921875, 137506.65625, -187500.015625, -161579.734375, -187500.015625, -187500.015625, -0.09600000083446503, -0.6380000114440918, 0.7740000486373901, 192.0, 0.0, 0.0, 0.0, 0.0, 0.0, 0.0, 0.0, 0.0, 0.0, 1.6137593903106644E9, 2021-02-19 16:29:50.310
209.0, -12142.96484375, 20567.58203125, -13888.94921875, 137175.328125, -187500.015625, -158597.765625, -187500.015625, -187500.015625, -0.09600000083446503, -0.6380000114440918, 0.7740000486373901, 192.0, 0.0, 0.0, 0.0, 0.0, 0.0, 0.0, 0.0, 0.0, 0.0, 1.6137593903147628E9, 2021-02-19 16:29:50.314
1.0, -11443.2880859375, 22365.087890625, -13548.30859375, 135917.796875, -187500.015625, -155765.03125, -187500.015625, -187500.015625, -0.09600000083446503, -0.6380000114440918, 0.7740000486373901, 192.0, 0.0, 0.0, 0.0, 0.0, 0.0, 0.0, 0.0, 0.0, 0.0, 1.6137593903176682E9, 2021-02-19 16:29:50.317
2.0, -11146.099609375, 22245.974609375, -13657.0048828125, 135811.859375, -187500.015625, -154598.234375, -187500.015625, -187500.015625, -0.09600000083446503, -0.6380000114440918, 0.7740000486373901, 192.0, 0.0, 0.0, 0.0, 0.0, 0.0, 0.0, 0.0, 0.0, 0.0, 1.6137593903206708E9, 2021-02-19 16:29:50.320
3.0, -11002.265625, 22066.78125, -13832.4208984375, 135631.0, -187500.015625, -152438.640625, -187500.015625, -187500.015625, -0.09600000083446503, -0.6380000114440918, 0.7740000486373901, 192.0, 0.0, 0.0, 0.0, 0.0, 0.0, 0.0, 0.0, 0.0, 0.0, 1.6137593904498668E9, 2021-02-19 16:29:50.449
4.0, -11302.8076171875, 22181.87109375, -13723.814453125, 135733.625, -187500.015625, -151682.046875, -187500.015625, -187500.015625, -0.09600000083446503, -0.6380000114440918, 0.7740000486373901, 192.0, 0.0, 0.0, 0.0, 0.0, 0.0, 0.0, 0.0, 0.0, 0.0, 1.6137593904659853E9, 2021-02-19 16:29:50.465
5.0, -11454.9560546875, 22332.72265625, -13574.482421875, 135887.625, -187500.015625, -152094.3125, -187500.015625, -187500.015625, -0.09600000083446503, -0.6380000114440918, 0.7740000486373901, 192.0, 0.0, 0.0, 0.0, 0.0, 0.0, 0.0, 0.0, 0.0, 0.0, 1.6137593904689016E9, 2021-02-19 16:29:50.468
6.0, -11192.12109375, 22229.255859375, -13674.6630859375, 135794.3125, -187500.015625, -151250.671875, -187500.015625, -187500.015625, -0.09600000083446503, -0.6380000114440918, 0.7740000486373901, 192.0, 0.0, 0.0, 0.0, 0.0, 0.0, 0.0, 0.0, 0.0, 0.0, 1.6137593904829586E9, 2021-02-19 16:29:50.482
61.0, -10971.4873046875, 22389.517578125, -13519.921875, 135984.0, -187500.015625, -141144.375, -187500.015625, -187500.015625, -0.09600000083446503, -0.6380000114440918, 0.7740000486373901, 192.0, 0.0, 0.0, 0.0, 0.0, 0.0, 0.0, 0.0, 0.0, 0.0, 1.6137593905610633E9, 2021-02-19 16:29:50.561
8.0, -11211.0986328125, 22060.58984375, -13845.7431640625, 135616.546875, -187500.015625, -147808.75, -187500.015625, -187500.015625, -0.09600000083446503, -0.6380000114440918, 0.7740000486373901, 192.0, 0.0, 0.0, 0.0, 0.0, 0.0, 0.0, 0.0, 0.0, 0.0, 1.6137593906210144E9, 2021-02-19 16:29:50.621
59.0, -11456.095703125, 22625.8203125, -13292.380859375, 136201.609375, -187500.015625, -141214.9375, -187500.015625, -187500.015625, -0.09600000083446503, -0.6380000114440918, 0.7740000486373901, 192.0, 0.0, 0.0, 0.0, 0.0, 0.0, 0.0, 0.0, 0.0, 0.0, 1.613759390624057E9, 2021-02-19 16:29:50.624
10.0, -11227.3251953125, 22094.005859375, -13817.3564453125, 135658.234375, -187500.015625, -146562.015625, -187500.015625, -187500.015625, -0.09600000083446503, -0.6380000114440918, 0.7740000486373901, 192.0, 0.0, 0.0, 0.0, 0.0, 0.0, 0.0, 0.0, 0.0, 0.0, 1.6137593906291597E9, 2021-02-19 16:29:50.629
11.0, -11010.201171875, 21961.169921875, -13944.8505859375, 135529.078125, -187500.015625, -144165.296875, -187500.015625, -187500.015625, -0.09600000083446503, -0.6380000114440918, 0.7740000486373901, 192.0, 0.0, 0.0, 0.0, 0.0, 0.0, 0.0, 0.0, 0.0, 0.0, 1.6137593906330373E9, 2021-02-19 16:29:50.633
57.0, -10982.685546875, 22306.4375, -13603.0478515625, 135895.109375, -187500.015625, -140051.640625, -187500.015625, -187500.015625, -0.10200000554323196, -0.6300000548362732, 0.7780000567436218, 192.0, 252.0, 208.0, 236.0, 80.0, 24.0, 80.0, 0.0, 0.0, 0.0, 1.6137593906362033E9, 2021-02-19 16:29:50.636
13.0, -11509.7177734375, 22306.056640625, -13610.4462890625, 135855.1875, -187500.015625, -143912.484375, -187500.015625, -187500.015625, -0.10200000554323196, -0.6300000548362732, 0.7780000567436218, 192.0, 0.0, 0.0, 0.0, 0.0, 0.0, 0.0, 0.0, 0.0, 0.0, 1.6137593906390712E9, 2021-02-19 16:29:50.639
95.0, -10945.2021484375, 22425.75, -13497.994140625, 136028.9375, -187500.015625, -145558.0, -187500.015625, -187500.015625, -0.10200000554323196, -0.6300000548362732, 0.7780000567436218, 192.0, 0.0, 0.0, 0.0, 0.0, 0.0, 0.0, 0.0, 0.0, 0.0, 1.6137593906421552E9, 2021-02-19 16:29:50.642
20.0, -10982.775390625, 22251.697265625, -13654.9482421875, 135813.640625, -187500.015625, -142844.765625, -187500.015625, -187500.015625, -0.10200000554323196, -0.6300000548362732, 0.7780000567436218, 192.0, 0.0, 0.0, 0.0, 0.0, 0.0, 0.0, 0.0, 0.0, 0.0, 1.6137593906691067E9, 2021-02-19 16:29:50.669
112.0, -11044.845703125, 22422.666015625, -13505.59375, 136029.984375, -187500.015625, -148263.15625, -187500.015625, -187500.015625, -0.10200000554323196, -0.6300000548362732, 0.7780000567436218, 192.0, 0.0, 0.0, 0.0, 0.0, 0.0, 0.0, 0.0, 0.0, 0.0, 1.613759390680086E9, 2021-02-19 16:29:50.680
17.0, -11388.5263671875, 22402.638671875, -13508.857421875, 135957.5625, -187500.015625, -143944.140625, -187500.015625, -187500.015625, -0.10200000554323196, -0.6260000467300415, 0.7820000648498535, 192.0, 252.0, 208.0, 236.0, 112.0, 24.0, 112.0, 0.0, 0.0, 0.0, 1.6137593906913407E9, 2021-02-19 16:29:50.691
92.0, -11367.11328125, 22593.56640625, -13339.9453125, 136181.65625, -187500.015625, -145546.234375, -187500.015625, -187500.015625, -0.10200000554323196, -0.6260000467300415, 0.7820000648498535, 192.0, 0.0, 0.0, 0.0, 0.0, 0.0, 0.0, 0.0, 0.0, 0.0, 1.6137593906941657E9, 2021-02-19 16:29:50.694
110.0, -11255.1533203125, 22648.3515625, -13285.2724609375, 136253.796875, -187500.015625, -149954.921875, -187500.015625, -187500.015625, -0.10200000554323196, -0.6260000467300415, 0.7820000648498535, 192.0, 0.0, 0.0, 0.0, 0.0, 0.0, 0.0, 0.0, 0.0, 0.0, 1.613759390697157E9, 2021-02-19 16:29:50.697
26.0, -11378.4228515625, 22546.0703125, -13368.7119140625, 136103.875, -187500.015625, -144328.71875, -187500.015625, -187500.015625, -0.10200000554323196, -0.6260000467300415, 0.7820000648498535, 192.0, 0.0, 0.0, 0.0, 0.0, 0.0, 0.0, 0.0, 0.0, 0.0, 1.6137593907011805E9, 2021-02-19 16:29:50.701
108.0, -11090.0185546875, 22461.1328125, -13469.8310546875, 136059.171875, -187500.015625, -147765.328125, -187500.015625, -187500.015625, -0.10200000554323196, -0.6260000467300415, 0.7820000648498535, 192.0, 0.0, 0.0, 0.0, 0.0, 0.0, 0.0, 0.0, 0.0, 0.0, 1.6137593907054026E9, 2021-02-19 16:29:50.705
88.0, -11446.328125, 22583.263671875, -13348.9306640625, 136165.90625, -187500.015625, -145170.5, -187500.015625, -187500.015625, -0.10200000554323196, -0.6260000467300415, 0.7820000648498535, 192.0, 0.0, 0.0, 0.0, 0.0, 0.0, 0.0, 0.0, 0.0, 0.0, 1.613759390709176E9, 2021-02-19 16:29:50.709
68.0, -11377.529296875, 22600.8984375, -13316.6328125, 136189.46875, -187500.015625, -143425.421875, -187500.015625, -187500.015625, -0.10200000554323196, -0.6260000467300415, 0.7820000648498535, 192.0, 0.0, 0.0, 0.0, 0.0, 0.0, 0.0, 0.0, 0.0, 0.0, 1.6137593907151785E9, 2021-02-19 16:29:50.715
86.0, -11003.763671875, 22403.5546875, -13519.8095703125, 136007.8125, -187500.015625, -144706.625, -187500.015625, -187500.015625, -0.10400000214576721, -0.6260000467300415, 0.7760000228881836, 192.0, 252.0, 192.0, 236.0, 112.0, 24.0, 64.0, 0.0, 0.0, 0.0, 1.6137593907181475E9, 2021-02-19 16:29:50.718
106.0, -11179.873046875, 22655.97265625, -13275.21484375, 136262.953125, -187500.015625, -149252.1875, -187500.015625, -187500.015625, -0.10000000149011612, -0.6320000290870667, 0.7700000405311584, 192.0, 252.0, 224.0, 236.0, 64.0, 24.0, 16.0, 0.0, 0.0, 0.0, 1.613759390721312E9, 2021-02-19 16:29:50.721
73.0, -11085.16796875, 22507.826171875, -13409.9736328125, 136103.640625, -187500.015625, -143648.734375, -187500.015625, -187500.015625, -0.10000000149011612, -0.6320000290870667, 0.7700000405311584, 192.0, 0.0, 0.0, 0.0, 0.0, 0.0, 0.0, 0.0, 0.0, 0.0, 1.6137593907261667E9, 2021-02-19 16:29:50.726
104.0, -11199.408203125, 22479.796875, -13446.49609375, 136077.546875, -187500.015625, -147159.234375, -187500.015625, -187500.015625, -0.10000000149011612, -0.6320000290870667, 0.7700000405311584, 192.0, 0.0, 0.0, 0.0, 0.0, 0.0, 0.0, 0.0, 0.0, 0.0, 1.6137593907292085E9, 2021-02-19 16:29:50.729
36.0, -10937.7138671875, 22303.888671875, -13606.9814453125, 135878.625, -187500.015625, -142393.390625, -187500.015625, -187500.015625, -0.10000000149011612, -0.6320000290870667, 0.7700000405311584, 192.0, 0.0, 0.0, 0.0, 0.0, 0.0, 0.0, 0.0, 0.0, 0.0, 1.6137593907342432E9, 2021-02-19 16:29:50.734
71.0, -11320.5322265625, 22556.240234375, -13362.3193359375, 136136.5625, -187500.015625, -142451.5, -187500.015625, -187500.015625, -0.10000000149011612, -0.6320000290870667, 0.7700000405311584, 192.0, 0.0, 0.0, 0.0, 0.0, 0.0, 0.0, 0.0, 0.0, 0.0, 1.6137593907381616E9, 2021-02-19 16:29:50.738
82.0, -10943.01171875, 22432.92578125, -13491.9599609375, 136033.1875, -187500.015625, -143754.4375, -187500.015625, -187500.015625, -0.10000000149011612, -0.6320000290870667, 0.7700000405311584, 192.0, 0.0, 0.0, 0.0, 0.0, 0.0, 0.0, 0.0, 0.0, 0.0, 1.6137593907421741E9, 2021-02-19 16:29:50.742
102.0, -11154.705078125, 22580.1328125, -13343.7451171875, 136188.5, -187500.015625, -148555.078125, -187500.015625, -187500.015625, -0.10000000149011612, -0.6320000290870667, 0.7700000405311584, 192.0, 0.0, 0.0, 0.0, 0.0, 0.0, 0.0, 0.0, 0.0, 0.0, 1.613759390745272E9, 2021-02-19 16:29:50.745
100.0, -11242.5244140625, 22504.16015625, -13422.9375, 136098.265625, -187500.015625, -146794.109375, -187500.015625, -187500.015625, -0.10000000149011612, -0.6320000290870667, 0.7700000405311584, 192.0, 0.0, 0.0, 0.0, 0.0, 0.0, 0.0, 0.0, 0.0, 0.0, 1.613759390749222E9, 2021-02-19 16:29:50.749
75.0, -11304.595703125, 22462.00390625, -13460.287109375, 136041.703125, -187500.015625, -142723.734375, -187500.015625, -187500.015625, -0.10000000149011612, -0.6320000290870667, 0.7700000405311584, 192.0, 0.0, 0.0, 0.0, 0.0, 0.0, 0.0, 0.0, 0.0, 0.0, 1.6137593907722156E9, 2021-02-19 16:29:50.772
97.0, -11390.158203125, 22669.607421875, -13258.763671875, 136268.328125, -187500.015625, -147752.15625, -187500.015625, -187500.015625, -0.10000000149011612, -0.6320000290870667, 0.7700000405311584, 192.0, 0.0, 0.0, 0.0, 0.0, 0.0, 0.0, 0.0, 0.0, 0.0, 1.613759390775221E9, 2021-02-19 16:29:50.775
98.0, -11101.306640625, 22557.46875, -13366.365234375, 136165.453125, -187500.015625, -147677.453125, -187500.015625, -187500.015625, -0.10000000149011612, -0.6320000290870667, 0.7700000405311584, 192.0, 0.0, 0.0, 0.0, 0.0, 0.0, 0.0, 0.0, 0.0, 0.0, 1.6137593907792923E9, 2021-02-19 16:29:50.779
123.0, -11065.767578125, 22637.734375, -13304.451171875, 136256.984375, -187500.015625, -151597.796875, -187500.015625, -187500.015625, -0.10000000149011612, -0.6320000290870667, 0.7700000405311584, 192.0, 0.0, 0.0, 0.0, 0.0, 0.0, 0.0, 0.0, 0.0, 0.0, 1.6137593907823136E9, 2021-02-19 16:29:50.782
114.0, -11326.8798828125, 22657.716796875, -13273.046875, 136267.359375, -187500.015625, -150380.8125, -187500.015625, -187500.015625, -0.10000000149011612, -0.6320000290870667, 0.7700000405311584, 192.0, 0.0, 0.0, 0.0, 0.0, 0.0, 0.0, 0.0, 0.0, 0.0, 1.6137593907852912E9, 2021-02-19 16:29:50.785
115.0, -11028.328125, 22493.744140625, -13431.4755859375, 136110.03125, -187500.015625, -149668.640625, -187500.015625, -187500.015625, -0.10000000149011612, -0.6320000290870667, 0.7700000405311584, 192.0, 0.0, 0.0, 0.0, 0.0, 0.0, 0.0, 0.0, 0.0, 0.0, 1.6137593907892706E9, 2021-02-19 16:29:50.789
121.0, -11280.5224609375, 22589.990234375, -13352.841796875, 136189.4375, -187500.015625, -149821.875, -187500.015625, -187500.015625, -0.10000000149011612, -0.6320000290870667, 0.7700000405311584, 192.0, 0.0, 0.0, 0.0, 0.0, 0.0, 0.0, 0.0, 0.0, 0.0, 1.6137593907923238E9, 2021-02-19 16:29:50.792
117.0, -11377.08203125, 22533.486328125, -13398.775390625, 136133.5625, -187500.015625, -149362.375, -187500.015625, -187500.015625, -0.10000000149011612, -0.6320000290870667, 0.7700000405311584, 192.0, 0.0, 0.0, 0.0, 0.0, 0.0, 0.0, 0.0, 0.0, 0.0, 1.6137593907953928E9, 2021-02-19 16:29:50.795
126.0, -11425.6748046875, 22649.71484375, -13287.306640625, 136263.671875, -187500.015625, -152110.96875, -187500.015625, -187500.015625, -0.10000000149011612, -0.6340000033378601, 0.7760000228881836, 192.0, 252.0, 224.0, 236.0, 48.0, 24.0, 64.0, 0.0, 0.0, 0.0, 1.613759390801249E9, 2021-02-19 16:29:50.801
119.0, -11080.564453125, 22520.34375, -13410.1748046875, 136138.21875, -187500.015625, -150330.453125, -187500.015625, -187500.015625, -0.10000000149011612, -0.6340000033378601, 0.7760000228881836, 192.0, 0.0, 0.0, 0.0, 0.0, 0.0, 0.0, 0.0, 0.0, 0.0, 1.6137593908052511E9, 2021-02-19 16:29:50.805
129.0, -11214.2275390625, 22392.78125, -13533.220703125, 136010.671875, -187500.015625, -150668.546875, -187500.015625, -187500.015625, -0.10000000149011612, -0.6340000033378601, 0.7760000228881836, 192.0, 0.0, 0.0, 0.0, 0.0, 0.0, 0.0, 0.0, 0.0, 0.0, 1.6137593908082962E9, 2021-02-19 16:29:50.808
127.0, -11179.3359375, 22592.091796875, -13336.9052734375, 136215.84375, -187500.015625, -152380.046875, -187500.015625, -187500.015625, -0.10000000149011612, -0.6340000033378601, 0.7760000228881836, 192.0, 0.0, 0.0, 0.0, 0.0, 0.0, 0.0, 0.0, 0.0, 0.0, 1.6137593908144052E9, 2021-02-19 16:29:50.814
130.0, -11469.283203125, 22619.427734375, -13313.123046875, 136234.609375, -187500.015625, -151977.53125, -187500.015625, -187500.015625, -0.10000000149011612, -0.6340000033378601, 0.7760000228881836, 192.0, 0.0, 0.0, 0.0, 0.0, 0.0, 0.0, 0.0, 0.0, 0.0, 1.6137593908203287E9, 2021-02-19 16:29:50.820
131.0, -11242.79296875, 22590.794921875, -13340.0126953125, 136218.875, -187500.015625, -152411.4375, -187500.015625, -187500.015625, -0.10000000149011612, -0.6340000033378601, 0.7760000228881836, 192.0, 0.0, 0.0, 0.0, 0.0, 0.0, 0.0, 0.0, 0.0, 0.0, 1.6137593908233085E9, 2021-02-19 16:29:50.823
132.0, -10984.09375, 22396.6484375, -13529.041015625, 136032.4375, -187500.015625, -151144.21875, -187500.015625, -187500.015625, -0.10000000149011612, -0.6340000033378601, 0.7760000228881836, 192.0, 0.0, 0.0, 0.0, 0.0, 0.0, 0.0, 0.0, 0.0, 0.0, 1.6137593908264055E9, 2021-02-19 16:29:50.826
133.0, -11138.857421875, 22350.916015625, -13577.0302734375, 135973.5, -187500.015625, -150383.171875, -187500.015625, -187500.015625, -0.10000000149011612, -0.6340000033378601, 0.7760000228881836, 192.0, 0.0, 0.0, 0.0, 0.0, 0.0, 0.0, 0.0, 0.0, 0.0, 1.6137593908292584E9, 2021-02-19 16:29:50.829
134.0, -11471.9658203125, 22528.94921875, -13405.525390625, 136146.578125, -187500.015625, -151438.65625, -187500.015625, -187500.015625, -0.10000000149011612, -0.6340000033378601, 0.7760000228881836, 192.0, 0.0, 0.0, 0.0, 0.0, 0.0, 0.0, 0.0, 0.0, 0.0, 1.613759390836304E9, 2021-02-19 16:29:50.836
135.0, -11328.66796875, 22580.603515625, -13353.53515625, 136207.703125, -187500.015625, -152217.546875, -187500.015625, -187500.015625, -0.10000000149011612, -0.6340000033378601, 0.7760000228881836, 192.0, 0.0, 0.0, 0.0, 0.0, 0.0, 0.0, 0.0, 0.0, 0.0, 1.6137593908402805E9, 2021-02-19 16:29:50.840
136.0, -11041.1806640625, 22380.98046875, -13547.302734375, 136016.84375, -187500.015625, -151170.78125, -187500.015625, -187500.015625, -0.10200000554323196, -0.6380000114440918, 0.7800000309944153, 192.0, 252.0, 208.0, 236.0, 16.0, 24.0, 96.0, 0.0, 0.0, 0.0, 1.61375939085031E9, 2021-02-19 16:29:50.850
137.0, -11094.3330078125, 22333.03515625, -13598.5546875, 135960.65625, -187500.015625, -150117.078125, -187500.015625, -187500.015625, -0.10200000554323196, -0.6380000114440918, 0.7800000309944153, 192.0, 0.0, 0.0, 0.0, 0.0, 0.0, 0.0, 0.0, 0.0, 0.0, 1.6137593908543842E9, 2021-02-19 16:29:50.854
138.0, -11439.17578125, 22499.17578125, -13440.0810546875, 136115.546875, -187500.015625, -150834.90625, -187500.015625, -187500.015625, -0.10200000554323196, -0.6380000114440918, 0.7800000309944153, 192.0, 0.0, 0.0, 0.0, 0.0, 0.0, 0.0, 0.0, 0.0, 0.0, 1.6137593908573928E9, 2021-02-19 16:29:50.857
149.0, -10969.2744140625, 22310.86328125, -13620.951171875, 135943.625, -187500.015625, -149448.765625, -187500.015625, -187500.015625, -0.10200000554323196, -0.6380000114440918, 0.7800000309944153, 192.0, 0.0, 0.0, 0.0, 0.0, 0.0, 0.0, 0.0, 0.0, 0.0, 1.613759390867303E9, 2021-02-19 16:29:50.867
140.0, -11082.7099609375, 22399.509765625, -13535.5673828125, 136031.1875, -187500.015625, -150791.203125, -187500.015625, -187500.015625, -0.10200000554323196, -0.6380000114440918, 0.7800000309944153, 192.0, 0.0, 0.0, 0.0, 0.0, 0.0, 0.0, 0.0, 0.0, 0.0, 1.6137593908713691E9, 2021-02-19 16:29:50.871
147.0, -11436.91796875, 22615.181640625, -13323.830078125, 136234.453125, -187500.015625, -151063.765625, -187500.015625, -187500.015625, -0.10200000554323196, -0.6380000114440918, 0.7800000309944153, 192.0, 0.0, 0.0, 0.0, 0.0, 0.0, 0.0, 0.0, 0.0, 0.0, 1.6137593908764064E9, 2021-02-19 16:29:50.876
142.0, -11406.8544921875, 22453.3984375, -13487.421875, 136066.328125, -187500.015625, -149935.03125, -187500.015625, -187500.015625, -0.10200000554323196, -0.6380000114440918, 0.7800000309944153, 192.0, 0.0, 0.0, 0.0, 0.0, 0.0, 0.0, 0.0, 0.0, 0.0, 1.613759390879347E9, 2021-02-19 16:29:50.879
143.0, -11420.51171875, 22594.259765625, -13346.9189453125, 136211.03125, -187500.015625, -151142.203125, -187500.015625, -187500.015625, -0.10200000554323196, -0.6380000114440918, 0.7800000309944153, 192.0, 0.0, 0.0, 0.0, 0.0, 0.0, 0.0, 0.0, 0.0, 0.0, 1.6137593908824403E9, 2021-02-19 16:29:50.882
144.0, -11104.63671875, 22473.3828125, -13463.349609375, 136101.0625, -187500.015625, -150794.359375, -187500.015625, -187500.015625, -0.10200000554323196, -0.6380000114440918, 0.7800000309944153, 192.0, 0.0, 0.0, 0.0, 0.0, 0.0, 0.0, 0.0, 0.0, 0.0, 1.6137593908854263E9, 2021-02-19 16:29:50.885
145.0, -10980.2265625, 22314.70703125, -13618.0458984375, 135942.4375, -187500.015625, -149546.546875, -187500.015625, -187500.015625, -0.10600000619888306, -0.6300000548362732, 0.7780000567436218, 192.0, 252.0, 176.0, 236.0, 80.0, 24.0, 80.0, 0.0, 0.0, 0.0, 1.6137593908894064E9, 2021-02-19 16:29:50.889
150.0, -11261.45703125, 22403.822265625, -13536.6181640625, 136023.53125, -187500.015625, -149176.234375, -187500.015625, -187500.015625, -0.10600000619888306, -0.6300000548362732, 0.7780000567436218, 192.0, 0.0, 0.0, 0.0, 0.0, 0.0, 0.0, 0.0, 0.0, 0.0, 1.6137593909094627E9, 2021-02-19 16:29:50.909
151.0, -11472.501953125, 22565.158203125, -13379.1279296875, 136185.796875, -187500.015625, -150334.828125, -187500.015625, -187500.015625, -0.10600000619888306, -0.6300000548362732, 0.7780000567436218, 192.0, 0.0, 0.0, 0.0, 0.0, 0.0, 0.0, 0.0, 0.0, 0.0, 1.613759390912382E9, 2021-02-19 16:29:50.912
152.0, -11240.53515625, 22500.248046875, -13439.7685546875, 136131.8125, -187500.015625, -150477.859375, -187500.015625, -187500.015625, -0.10600000619888306, -0.6300000548362732, 0.7780000567436218, 192.0, 0.0, 0.0, 0.0, 0.0, 0.0, 0.0, 0.0, 0.0, 0.0, 1.6137593909164927E9, 2021-02-19 16:29:50.916
153.0, -11007.8759765625, 22350.4921875, -13589.1669921875, 135983.40625, -187500.015625, -149234.25, -187500.015625, -187500.015625, -0.10600000619888306, -0.6300000548362732, 0.7780000567436218, 192.0, 0.0, 0.0, 0.0, 0.0, 0.0, 0.0, 0.0, 0.0, 0.0, 1.6137593909194038E9, 2021-02-19 16:29:50.919
154.0, -11181.8173828125, 22397.02734375, -13547.5927734375, 136018.46875, -187500.015625, -148644.140625, -187500.015625, -187500.015625, -0.10600000619888306, -0.6300000548362732, 0.7780000567436218, 192.0, 0.0, 0.0, 0.0, 0.0, 0.0, 0.0, 0.0, 0.0, 0.0, 1.6137593909224477E9, 2021-02-19 16:29:50.922
155.0, -11460.119140625, 22556.26171875, -13393.3662109375, 136175.03125, -187500.015625, -149735.53125, -187500.015625, -187500.015625, -0.10400000214576721, -0.6380000114440918, 0.7680000066757202, 192.0, 252.0, 192.0, 236.0, 16.0, 24.0, 0.0, 0.0, 0.0, 0.0, 1.613759390926536E9, 2021-02-19 16:29:50.926
156.0, -11277.6396484375, 22537.330078125, -13410.1748046875, 136168.34375, -187500.015625, -150273.328125, -187500.015625, -187500.015625, -0.10400000214576721, -0.6380000114440918, 0.7680000066757202, 192.0, 0.0, 0.0, 0.0, 0.0, 0.0, 0.0, 0.0, 0.0, 0.0, 1.6137593909294455E9, 2021-02-19 16:29:50.929
157.0, -10997.4375, 22384.890625, -13557.583984375, 136023.546875, -187500.015625, -149106.53125, -187500.015625, -187500.015625, -0.10400000214576721, -0.6380000114440918, 0.7680000066757202, 192.0, 0.0, 0.0, 0.0, 0.0, 0.0, 0.0, 0.0, 0.0, 0.0, 1.613759390933389E9, 2021-02-19 16:29:50.933
158.0, -11103.384765625, 22362.2265625, -13581.947265625, 135990.125, -187500.015625, -148254.875, -187500.015625, -187500.015625, -0.10400000214576721, -0.6380000114440918, 0.7680000066757202, 192.0, 0.0, 0.0, 0.0, 0.0, 0.0, 0.0, 0.0, 0.0, 0.0, 1.6137593909364843E9, 2021-02-19 16:29:50.936
159.0, -11419.416015625, 22560.3515625, -13391.287109375, 136180.8125, -187500.015625, -149249.515625, -187500.015625, -187500.015625, -0.10400000214576721, -0.6380000114440918, 0.7680000066757202, 192.0, 0.0, 0.0, 0.0, 0.0, 0.0, 0.0, 0.0, 0.0, 0.0, 1.613759390939443E9, 2021-02-19 16:29:50.939
160.0, -11296.3701171875, 22582.591796875, -13368.6669921875, 136209.015625, -187500.015625, -150121.703125, -187500.015625, -187500.015625, -0.10400000214576721, -0.6380000114440918, 0.7680000066757202, 192.0, 0.0, 0.0, 0.0, 0.0, 0.0, 0.0, 0.0, 0.0, 0.0, 1.6137593909425237E9, 2021-02-19 16:29:50.942
161.0, -11014.9169921875, 22394.79296875, -13549.828125, 136029.046875, -187500.015625, -149205.75, -187500.015625, -187500.015625, -0.10400000214576721, -0.6380000114440918, 0.7680000066757202, 192.0, 0.0, 0.0, 0.0, 0.0, 0.0, 0.0, 0.0, 0.0, 0.0, 1.6137593909464269E9, 2021-02-19 16:29:50.946
162.0, -11047.5947265625, 22331.248046875, -13614.4921875, 135956.890625, -187500.015625, -148159.09375, -187500.015625, -187500.015625, -0.10400000214576721, -0.6380000114440918, 0.7680000066757202, 192.0, 0.0, 0.0, 0.0, 0.0, 0.0, 0.0, 0.0, 0.0, 0.0, 1.6137593909494517E9, 2021-02-19 16:29:50.949
163.0, -11390.9853515625, 22530.7578125, -13420.2548828125, 136149.203125, -187500.015625, -148954.859375, -187500.015625, -187500.015625, -0.10400000214576721, -0.6380000114440918, 0.7680000066757202, 192.0, 0.0, 0.0, 0.0, 0.0, 0.0, 0.0, 0.0, 0.0, 0.0, 1.613759390952432E9, 2021-02-19 16:29:50.952
164.0, -11348.5615234375, 22593.0078125, -13356.0380859375, 136222.078125, -187500.015625, -150088.765625, -187500.015625, -187500.015625, -0.10400000214576721, -0.6380000114440918, 0.7680000066757202, 192.0, 0.0, 0.0, 0.0, 0.0, 0.0, 0.0, 0.0, 0.0, 0.0, 1.6137593909565065E9, 2021-02-19 16:29:50.956
165.0, -11060.1572265625, 22427.203125, -13515.3837890625, 136066.0, -187500.015625, -149421.453125, -187500.015625, -187500.015625, -0.09600000083446503, -0.6320000290870667, 0.7760000228881836, 192.0, 253.0, 0.0, 236.0, 64.0, 24.0, 64.0, 0.0, 0.0, 0.0, 1.6137593909594717E9, 2021-02-19 16:29:50.959
174.0, -10932.1484375, 22384.01953125, -13550.54296875, 136028.4375, -187500.015625, -148075.03125, -187500.015625, -187500.015625, -0.09600000083446503, -0.6320000290870667, 0.7760000228881836, 192.0, 0.0, 0.0, 0.0, 0.0, 0.0, 0.0, 0.0, 0.0, 0.0, 1.6137593909735363E9, 2021-02-19 16:29:50.973
167.0, -11369.03515625, 22447.38671875, -13497.3681640625, 136076.125, -187500.015625, -148394.703125, -187500.015625, -187500.015625, -0.09600000083446503, -0.6320000290870667, 0.7760000228881836, 192.0, 0.0, 0.0, 0.0, 0.0, 0.0, 0.0, 0.0, 0.0, 0.0, 1.6137593909894998E9, 2021-02-19 16:29:50.989
170.0, -10979.35546875, 22364.685546875, -13571.3974609375, 136007.4375, -187500.015625, -147942.015625, -187500.015625, -187500.015625, -0.09600000083446503, -0.6320000290870667, 0.7760000228881836, 192.0, 0.0, 0.0, 0.0, 0.0, 0.0, 0.0, 0.0, 0.0, 0.0, 1.6137593909934735E9, 2021-02-19 16:29:50.993
171.0, -11263.177734375, 22480.19921875, -13461.0693359375, 136110.625, -187500.015625, -148052.046875, -187500.015625, -187500.015625, -0.09600000083446503, -0.6320000290870667, 0.7760000228881836, 192.0, 0.0, 0.0, 0.0, 0.0, 0.0, 0.0, 0.0, 0.0, 0.0, 1.6137593909964764E9, 2021-02-19 16:29:50.996
172.0, -11403.189453125, 22621.595703125, -13323.986328125, 136253.640625, -187500.015625, -149327.375, -187500.015625, -187500.015625, -0.09600000083446503, -0.6320000290870667, 0.7760000228881836, 192.0, 0.0, 0.0, 0.0, 0.0, 0.0, 0.0, 0.0, 0.0, 0.0, 1.6137593910004656E9, 2021-02-19 16:29:51.000
175.0, -11190.5791015625, 22429.818359375, -13510.109375, 136060.515625, -187500.015625, -147847.53125, -187500.015625, -187500.015625, -0.09600000083446503, -0.6300000548362732, 0.7720000147819519, 192.0, 253.0, 0.0, 236.0, 80.0, 24.0, 32.0, 0.0, 0.0, 0.0, 1.6137593910036376E9, 2021-02-19 16:29:51.003
176.0, -11437.1416015625, 22577.1171875, -13367.6611328125, 136208.6875, -187500.015625, -149240.625, -187500.015625, -187500.015625, -0.09600000083446503, -0.6300000548362732, 0.7720000147819519, 192.0, 0.0, 0.0, 0.0, 0.0, 0.0, 0.0, 0.0, 0.0, 0.0, 1.6137593910066485E9, 2021-02-19 16:29:51.006
182.0, -11009.4404296875, 22410.86328125, -13530.76171875, 136052.578125, -187500.015625, -148455.390625, -187500.015625, -187500.015625, -0.09600000083446503, -0.6300000548362732, 0.7720000147819519, 192.0, 0.0, 0.0, 0.0, 0.0, 0.0, 0.0, 0.0, 0.0, 0.0, 1.6137593910116355E9, 2021-02-19 16:29:51.011
178.0, -10959.23828125, 22385.47265625, -13555.818359375, 136027.375, -187500.015625, -148302.234375, -187500.015625, -187500.015625, -0.09600000083446503, -0.6300000548362732, 0.7720000147819519, 192.0, 0.0, 0.0, 0.0, 0.0, 0.0, 0.0, 0.0, 0.0, 0.0, 1.613759391036644E9, 2021-02-19 16:29:51.036
179.0, -11149.138671875, 22366.7421875, -13576.9189453125, 135995.5, -187500.015625, -147715.828125, -187500.015625, -187500.015625, -0.09600000083446503, -0.6300000548362732, 0.7720000147819519, 192.0, 0.0, 0.0, 0.0, 0.0, 0.0, 0.0, 0.0, 0.0, 0.0, 1.6137593910405233E9, 2021-02-19 16:29:51.040
180.0, -11455.0673828125, 22557.15625, -13390.1025390625, 136183.3125, -187500.015625, -148849.359375, -187500.015625, -187500.015625, -0.09600000083446503, -0.6300000548362732, 0.7720000147819519, 192.0, 0.0, 0.0, 0.0, 0.0, 0.0, 0.0, 0.0, 0.0, 0.0, 1.6137593910476687E9, 2021-02-19 16:29:51.047
183.0, -11080.98828125, 22380.845703125, -13564.021484375, 136013.328125, -187500.015625, -147612.5625, -187500.015625, -187500.015625, -0.09600000083446503, -0.6300000548362732, 0.7720000147819519, 192.0, 0.0, 0.0, 0.0, 0.0, 0.0, 0.0, 0.0, 0.0, 0.0, 1.6137593910516338E9, 2021-02-19 16:29:51.051
184.0, -11422.232421875, 22544.28125, -13406.44140625, 136171.5, -187500.015625, -148568.859375, -187500.015625, -187500.015625, -0.09600000083446503, -0.6300000548362732, 0.7720000147819519, 192.0, 0.0, 0.0, 0.0, 0.0, 0.0, 0.0, 0.0, 0.0, 0.0, 1.6137593910545876E9, 2021-02-19 16:29:51.054
185.0, -11329.517578125, 22582.302734375, -13368.6669921875, 136222.671875, -187500.015625, -149525.765625, -187500.015625, -187500.015625, -0.10000000149011612, -0.6380000114440918, 0.7700000405311584, 192.0, 252.0, 224.0, 236.0, 16.0, 24.0, 16.0, 0.0, 0.0, 0.0, 1.6137593910575583E9, 2021-02-19 16:29:51.057
186.0, -11032.1728515625, 22444.99609375, -13502.5546875, 136091.46875, -187500.015625, -148714.671875, -187500.015625, -187500.015625, -0.10000000149011612, -0.6380000114440918, 0.7700000405311584, 192.0, 0.0, 0.0, 0.0, 0.0, 0.0, 0.0, 0.0, 0.0, 0.0, 1.6137593910615644E9, 2021-02-19 16:29:51.061
187.0, -11019.3427734375, 22354.962890625, -13591.1787109375, 135994.625, -187500.015625, -147642.078125, -187500.015625, -187500.015625, -0.10000000149011612, -0.6380000114440918, 0.7700000405311584, 192.0, 0.0, 0.0, 0.0, 0.0, 0.0, 0.0, 0.0, 0.0, 0.0, 1.613759391064736E9, 2021-02-19 16:29:51.064
188.0, -11380.3232421875, 22515.447265625, -13437.734375, 136141.5625, -187500.015625, -148341.109375, -187500.015625, -187500.015625, -0.10000000149011612, -0.6380000114440918, 0.7700000405311584, 192.0, 0.0, 0.0, 0.0, 0.0, 0.0, 0.0, 0.0, 0.0, 0.0, 1.6137593910685775E9, 2021-02-19 16:29:51.068
189.0, -11374.19921875, 22607.314453125, -13344.818359375, 136242.6875, -187500.015625, -149484.734375, -187500.015625, -187500.015625, -0.10000000149011612, -0.6380000114440918, 0.7700000405311584, 192.0, 0.0, 0.0, 0.0, 0.0, 0.0, 0.0, 0.0, 0.0, 0.0, 1.6137593910736253E9, 2021-02-19 16:29:51.073
190.0, -11062.4814453125, 22492.716796875, -13453.6708984375, 136137.234375, -187500.015625, -148976.359375, -187500.015625, -187500.015625, -0.10000000149011612, -0.6380000114440918, 0.7700000405311584, 192.0, 0.0, 0.0, 0.0, 0.0, 0.0, 0.0, 0.0, 0.0, 0.0, 1.6137593910776613E9, 2021-02-19 16:29:51.077
191.0, -10977.298828125, 22364.908203125, -13578.259765625, 136006.21875, -187500.015625, -147797.625, -187500.015625, -187500.015625, -0.10000000149011612, -0.6380000114440918, 0.7700000405311584, 192.0, 0.0, 0.0, 0.0, 0.0, 0.0, 0.0, 0.0, 0.0, 0.0, 1.6137593910926092E9, 2021-02-19 16:29:51.092
192.0, -11314.810546875, 22507.2890625, -13440.4833984375, 136138.5, -187500.015625, -148233.234375, -187500.015625, -187500.015625, -0.10000000149011612, -0.6380000114440918, 0.7700000405311584, 192.0, 0.0, 0.0, 0.0, 0.0, 0.0, 0.0, 0.0, 0.0, 0.0, 1.6137593910966132E9, 2021-02-19 16:29:51.096
193.0, -11392.37109375, 22646.919921875, -13301.6123046875, 136283.25, -187500.015625, -149536.984375, -187500.015625, -187500.015625, -0.10000000149011612, -0.6380000114440918, 0.7700000405311584, 192.0, 0.0, 0.0, 0.0, 0.0, 0.0, 0.0, 0.0, 0.0, 0.0, 1.6137593911106076E9, 2021-02-19 16:29:51.110
203.0, -10947.8837890625, 22397.2734375, -13540.8203125, 136051.28125, -187500.015625, -149334.765625, -187500.015625, -187500.015625, -0.10000000149011612, -0.6380000114440918, 0.7700000405311584, 192.0, 0.0, 0.0, 0.0, 0.0, 0.0, 0.0, 0.0, 0.0, 0.0, 1.613759391114658E9, 2021-02-19 16:29:51.114
195.0, -10937.5576171875, 22385.986328125, -13554.7451171875, 136030.5, -187500.015625, -148074.5625, -187500.015625, -187500.015625, -0.09800000488758087, -0.6380000114440918, 0.7780000567436218, 192.0, 252.0, 240.0, 236.0, 16.0, 24.0, 80.0, 0.0, 0.0, 0.0, 1.613759391117796E9, 2021-02-19 16:29:51.117
201.0, -11420.8017578125, 22614.421875, -13330.5126953125, 136253.640625, -187500.015625, -149802.140625, -187500.015625, -187500.015625, -0.09800000488758087, -0.6380000114440918, 0.7780000567436218, 192.0, 0.0, 0.0, 0.0, 0.0, 0.0, 0.0, 0.0, 0.0, 0.0, 1.6137593911417668E9, 2021-02-19 16:29:51.141
197.0, -11427.6640625, 22591.376953125, -13357.267578125, 136226.90625, -187500.015625, -149541.59375, -187500.015625, -187500.015625, -0.09800000488758087, -0.6380000114440918, 0.7780000567436218, 192.0, 0.0, 0.0, 0.0, 0.0, 0.0, 0.0, 0.0, 0.0, 0.0, 1.6137593911477122E9, 2021-02-19 16:29:51.147
198.0, -11169.6357421875, 22552.796875, -13389.3427734375, 136196.75, -187500.015625, -149765.203125, -187500.015625, -187500.015625, -0.09800000488758087, -0.6380000114440918, 0.7780000567436218, 192.0, 0.0, 0.0, 0.0, 0.0, 0.0, 0.0, 0.0, 0.0, 0.0, 1.6137593911728992E9, 2021-02-19 16:29:51.172
199.0, -10934.00390625, 22402.169921875, -13534.181640625, 136050.171875, -187500.015625, -148722.578125, -187500.015625, -187500.015625, -0.09800000488758087, -0.6380000114440918, 0.7780000567436218, 192.0, 0.0, 0.0, 0.0, 0.0, 0.0, 0.0, 0.0, 0.0, 0.0, 1.6137593912127523E9, 2021-02-19 16:29:51.212
204.0, -11095.2265625, 22408.830078125, -13531.09765625, 136047.640625, -187500.015625, -148809.453125, -187500.015625, -187500.015625, -0.10400000214576721, -0.6300000548362732, 0.7700000405311584, 192.0, 252.0, 192.0, 236.0, 80.0, 24.0, 16.0, 0.0, 0.0, 0.0, 1.613759391233853E9, 2021-02-19 16:29:51.233
205.0, -11410.341796875, 22578.501953125, -13367.572265625, 136210.296875, -187500.015625, -149988.890625, -187500.015625, -187500.015625, -0.10400000214576721, -0.6300000548362732, 0.7700000405311584, 192.0, 0.0, 0.0, 0.0, 0.0, 0.0, 0.0, 0.0, 0.0, 0.0, 1.6137593912548242E9, 2021-02-19 16:29:51.254
206.0, -11263.5126953125, 22603.267578125, -13339.9453125, 136243.015625, -187500.015625, -150820.0, -187500.015625, -187500.015625, -0.10400000214576721, -0.6300000548362732, 0.7700000405311584, 192.0, 0.0, 0.0, 0.0, 0.0, 0.0, 0.0, 0.0, 0.0, 0.0, 1.6137593912608433E9, 2021-02-19 16:29:51.260
215.0, -11077.658203125, 22446.515625, -13496.5634765625, 136096.546875, -187500.015625, -150410.71875, -187500.015625, -187500.015625, -0.10400000214576721, -0.6300000548362732, 0.7700000405311584, 192.0, 0.0, 0.0, 0.0, 0.0, 0.0, 0.0, 0.0, 0.0, 0.0, 1.6137593912678154E9, 2021-02-19 16:29:51.267
220.0, -11049.2939453125, 22301.51953125, -13634.6083984375, 135955.953125, -187500.015625, -148600.46875, -187500.015625, -187500.015625, -0.10400000214576721, -0.6300000548362732, 0.7700000405311584, 192.0, 0.0, 0.0, 0.0, 0.0, 0.0, 0.0, 0.0, 0.0, 0.0, 1.613759391274906E9, 2021-02-19 16:29:51.274
213.0, -11386.291015625, 22540.50390625, -13406.5986328125, 136175.109375, -187500.015625, -149652.125, -187500.015625, -187500.015625, -0.10400000214576721, -0.6300000548362732, 0.7700000405311584, 192.0, 0.0, 0.0, 0.0, 0.0, 0.0, 0.0, 0.0, 0.0, 0.0, 1.613759391277897E9, 2021-02-19 16:29:51.277
210.0, -11314.318359375, 22616.208984375, -13328.4345703125, 136259.296875, -187500.015625, -150944.828125, -187500.015625, -187500.015625, -0.10400000214576721, -0.6300000548362732, 0.7700000405311584, 192.0, 0.0, 0.0, 0.0, 0.0, 0.0, 0.0, 0.0, 0.0, 0.0, 1.6137593912811797E9, 2021-02-19 16:29:51.281
211.0, -11043.6162109375, 22384.66796875, -13551.6162109375, 136035.53125, -187500.015625, -150155.84375, -187500.015625, -187500.015625, -0.10400000214576721, -0.6300000548362732, 0.7700000405311584, 192.0, 0.0, 0.0, 0.0, 0.0, 0.0, 0.0, 0.0, 0.0, 0.0, 1.6137593912848723E9, 2021-02-19 16:29:51.284
216.0, -11003.71875, 22298.0546875, -13642.990234375, 135944.734375, -187500.015625, -149183.65625, -187500.015625, -187500.015625, -0.10400000214576721, -0.6300000548362732, 0.7700000405311584, 192.0, 0.0, 0.0, 0.0, 0.0, 0.0, 0.0, 0.0, 0.0, 0.0, 1.6137593912888043E9, 2021-02-19 16:29:51.288
217.0, -11339.8662109375, 22462.65234375, -13485.947265625, 136096.609375, -187500.015625, -149431.015625, -187500.015625, -187500.015625, -0.10400000214576721, -0.6300000548362732, 0.7700000405311584, 192.0, 0.0, 0.0, 0.0, 0.0, 0.0, 0.0, 0.0, 0.0, 0.0, 1.6137593913490992E9, 2021-02-19 16:29:51.349
221.0, -11334.94921875, 22407.109375, -13536.439453125, 136051.703125, -187500.015625, -148396.78125, -187500.015625, -187500.015625, -0.10400000214576721, -0.6300000548362732, 0.7700000405311584, 192.0, 0.0, 0.0, 0.0, 0.0, 0.0, 0.0, 0.0, 0.0, 0.0, 1.6137593913600285E9, 2021-02-19 16:29:51.360
222.0, -11519.6640625, 22556.5078125, -13391.734375, 136202.15625, -187500.015625, -149627.984375, -187500.015625, -187500.015625, -0.10400000214576721, -0.6300000548362732, 0.7700000405311584, 192.0, 0.0, 0.0, 0.0, 0.0, 0.0, 0.0, 0.0, 0.0, 0.0, 1.6137593913660176E9, 2021-02-19 16:29:51.366
223.0, -11276.96875, 22455.634765625, -13489.6572265625, 136110.9375, -187500.015625, -149693.359375, -187500.015625, -187500.015625, -0.10400000214576721, -0.6300000548362732, 0.7700000405311584, 192.0, 0.0, 0.0, 0.0, 0.0, 0.0, 0.0, 0.0, 0.0, 0.0, 1.6137593914109704E9, 2021-02-19 16:29:51.410
5.0, -11117.2880859375, 22408.96484375, -13545.0, 136062.640625, -187500.015625, -145748.96875, -187500.015625, -187500.015625, -0.10400000214576721, -0.6300000548362732, 0.7700000405311584, 192.0, 0.0, 0.0, 0.0, 0.0, 0.0, 0.0, 0.0, 0.0, 0.0, 1.613759391416126E9, 2021-02-19 16:29:51.416
225.0, -11250.75, 22341.640625, -13603.3154296875, 135982.390625, -187500.015625, -148176.09375, -187500.015625, -187500.015625, -0.10400000214576721, -0.6300000548362732, 0.7700000405311584, 192.0, 0.0, 0.0, 0.0, 0.0, 0.0, 0.0, 0.0, 0.0, 0.0, 1.6137593914231455E9, 2021-02-19 16:29:51.423
2.0, -11052.78125, 22341.373046875, -13611.8095703125, 135991.875, -187500.015625, -145002.953125, -187500.015625, -187500.015625, -0.10400000214576721, -0.6300000548362732, 0.7700000405311584, 192.0, 0.0, 0.0, 0.0, 0.0, 0.0, 0.0, 0.0, 0.0, 0.0, 1.6137593914269946E9, 2021-02-19 16:29:51.426
242.0, -11374.7802734375, 22417.8828125, -13533.466796875, 136056.359375, -187500.015625, -146975.453125, -187500.015625, -187500.015625, -0.10400000214576721, -0.6300000548362732, 0.7700000405311584, 192.0, 0.0, 0.0, 0.0, 0.0, 0.0, 0.0, 0.0, 0.0, 0.0, 1.613759391431035E9, 2021-02-19 16:29:51.431
228.0, -11049.0703125, 22374.431640625, -13571.107421875, 136032.796875, -187500.015625, -148516.734375, -187500.015625, -187500.015625, -0.10400000214576721, -0.6300000548362732, 0.7700000405311584, 192.0, 0.0, 0.0, 0.0, 0.0, 0.0, 0.0, 0.0, 0.0, 0.0, 1.6137593914340346E9, 2021-02-19 16:29:51.434
249.0, -11027.92578125, 22362.6953125, -13581.5224609375, 136022.109375, -187500.015625, -146592.484375, -187500.015625, -187500.015625, -0.10400000214576721, -0.6300000548362732, 0.7700000405311584, 192.0, 0.0, 0.0, 0.0, 0.0, 0.0, 0.0, 0.0, 0.0, 0.0, 1.6137593914571524E9, 2021-02-19 16:29:51.457
39.0, -11020.1474609375, 22299.0390625, -13658.0107421875, 135959.796875, -187500.015625, -139520.609375, -187500.015625, -187500.015625, -0.10400000214576721, -0.6300000548362732, 0.7700000405311584, 192.0, 0.0, 0.0, 0.0, 0.0, 0.0, 0.0, 0.0, 0.0, 0.0, 1.6137593915153084E9, 2021-02-19 16:29:51.515
231.0, -11359.46875, 22546.60546875, -13405.7041015625, 136195.515625, -187500.015625, -149498.125, -187500.015625, -187500.015625, -0.10400000214576721, -0.6300000548362732, 0.7700000405311584, 192.0, 0.0, 0.0, 0.0, 0.0, 0.0, 0.0, 0.0, 0.0, 0.0, 1.6137593915361469E9, 2021-02-19 16:29:51.536
247.0, -11485.0185546875, 22554.2734375, -13399.736328125, 136201.265625, -187500.015625, -147709.671875, -187500.015625, -187500.015625, -0.10400000214576721, -0.6300000548362732, 0.7700000405311584, 192.0, 0.0, 0.0, 0.0, 0.0, 0.0, 0.0, 0.0, 0.0, 0.0, 1.613759391540182E9, 2021-02-19 16:29:51.540
235.0, -11390.158203125, 22589.140625, -13364.0849609375, 136229.609375, -187500.015625, -149173.28125, -187500.015625, -187500.015625, -0.10400000214576721, -0.6300000548362732, 0.7700000405311584, 192.0, 0.0, 0.0, 0.0, 0.0, 0.0, 0.0, 0.0, 0.0, 0.0, 1.6137593915432248E9, 2021-02-19 16:29:51.543
35.0, -11021.845703125, 22286.833984375, -13673.8798828125, 135941.421875, -187500.015625, -139975.015625, -187500.015625, -187500.015625, -0.10400000214576721, -0.6300000548362732, 0.7700000405311584, 192.0, 0.0, 0.0, 0.0, 0.0, 0.0, 0.0, 0.0, 0.0, 0.0, 1.6137593915662775E9, 2021-02-19 16:29:51.566
243.0, -11483.431640625, 22601.658203125, -13352.4619140625, 136245.671875, -187500.015625, -148149.6875, -187500.015625, -187500.015625, -0.10400000214576721, -0.6300000548362732, 0.7700000405311584, 192.0, 0.0, 0.0, 0.0, 0.0, 0.0, 0.0, 0.0, 0.0, 0.0, 1.6137593915913043E9, 2021-02-19 16:29:51.591
33.0, -11493.1328125, 22535.876953125, -13434.6044921875, 136178.71875, -187500.015625, -141582.515625, -187500.015625, -187500.015625, -0.10400000214576721, -0.6300000548362732, 0.7700000405311584, 192.0, 0.0, 0.0, 0.0, 0.0, 0.0, 0.0, 0.0, 0.0, 0.0, 1.6137593916062868E9, 2021-02-19 16:29:51.606
11.0, -11330.3671875, 22427.515625, -13534.1376953125, 136072.5625, -187500.015625, -143943.265625, -187500.015625, -187500.015625, -0.10400000214576721, -0.6300000548362732, 0.7700000405311584, 192.0, 0.0, 0.0, 0.0, 0.0, 0.0, 0.0, 0.0, 0.0, 0.0, 1.613759391610621E9, 2021-02-19 16:29:51.610
31.0, -11057.720703125, 22262.650390625, -13699.16015625, 135913.9375, -187500.015625, -140363.515625, -187500.015625, -187500.015625, -0.10400000214576721, -0.6300000548362732, 0.7700000405311584, 192.0, 0.0, 0.0, 0.0, 0.0, 0.0, 0.0, 0.0, 0.0, 0.0, 1.6137593917213976E9, 2021-02-19 16:29:51.721
80.0, -11102.826171875, 22481.2265625, -13494.373046875, 136126.4375, -187500.015625, -136782.859375, -187500.015625, -187500.015625, -0.10400000214576721, -0.6300000548362732, 0.7700000405311584, 192.0, 0.0, 0.0, 0.0, 0.0, 0.0, 0.0, 0.0, 0.0, 0.0, 1.6137593917715576E9, 2021-02-19 16:29:51.771
50.0, -11398.763671875, 22550.541015625, -13414.935546875, 136204.390625, -187500.015625, -139370.34375, -187500.015625, -187500.015625, -0.10400000214576721, -0.6300000548362732, 0.7700000405311584, 192.0, 0.0, 0.0, 0.0, 0.0, 0.0, 0.0, 0.0, 0.0, 0.0, 1.6137593917754667E9, 2021-02-19 16:29:51.775
78.0, -11364.0068359375, 22493.498046875, -13484.8291015625, 136127.703125, -187500.015625, -135905.21875, -187500.015625, -187500.015625, -0.10400000214576721, -0.6300000548362732, 0.7700000405311584, 192.0, 0.0, 0.0, 0.0, 0.0, 0.0, 0.0, 0.0, 0.0, 0.0, 1.61375939184059E9, 2021-02-19 16:29:51.840
120.0, -11439.041015625, 22550.09375, -13433.5986328125, 136173.265625, -187500.015625, -139742.59375, -187500.015625, -187500.015625, -0.10400000214576721, -0.6300000548362732, 0.7700000405311584, 192.0, 0.0, 0.0, 0.0, 0.0, 0.0, 0.0, 0.0, 0.0, 0.0, 1.6137593918555064E9, 2021-02-19 16:29:51.855
76.0, -11064.359375, 22413.748046875, -13555.1259765625, 136068.875, -187500.015625, -136555.234375, -187500.015625, -187500.015625, -0.1080000028014183, -0.6320000290870667, 0.7700000405311584, 192.0, 252.0, 160.0, 236.0, 64.0, 24.0, 16.0, 0.0, 0.0, 0.0, 1.6137593919249911E9, 2021-02-19 16:29:51.924
48.0, -11151.6650390625, 22258.044921875, -13703.3173828125, 135911.203125, -187500.015625, -137836.40625, -187500.015625, -187500.015625, -0.1080000028014183, -0.6320000290870667, 0.7700000405311584, 192.0, 0.0, 0.0, 0.0, 0.0, 0.0, 0.0, 0.0, 0.0, 0.0, 1.6137593919316232E9, 2021-02-19 16:29:51.931
118.0, -10973.6328125, 22423.134765625, -13554.1640625, 136060.3125, -187500.015625, -139492.875, -187500.015625, -187500.015625, -0.1080000028014183, -0.6320000290870667, 0.7700000405311584, 192.0, 0.0, 0.0, 0.0, 0.0, 0.0, 0.0, 0.0, 0.0, 0.0, 1.6137593920629597E9, 2021-02-19 16:29:52.062
161.0, -11176.20703125, 22464.375, -13515.5185546875, 136087.09375, -187500.015625, -143824.53125, -187500.015625, -187500.015625, -0.1080000028014183, -0.6320000290870667, 0.7700000405311584, 192.0, 0.0, 0.0, 0.0, 0.0, 0.0, 0.0, 0.0, 0.0, 0.0, 1.6137593921319313E9, 2021-02-19 16:29:52.131
25.0, -11410.2294921875, 22493.54296875, -13471.5078125, 136142.234375, -187500.015625, -143223.953125, -187500.015625, -187500.015625, -0.1080000028014183, -0.6320000290870667, 0.7700000405311584, 192.0, 0.0, 0.0, 0.0, 0.0, 0.0, 0.0, 0.0, 0.0, 0.0, 1.6137593921429229E9, 2021-02-19 16:29:52.142
186.0, -11177.927734375, 22390.591796875, -13577.2314453125, 136017.359375, -187500.015625, -146098.90625, -187500.015625, -187500.015625, -0.1080000028014183, -0.6320000290870667, 0.7700000405311584, 192.0, 0.0, 0.0, 0.0, 0.0, 0.0, 0.0, 0.0, 0.0, 0.0, 1.6137593921458385E9, 2021-02-19 16:29:52.145
187.0, -11484.6611328125, 22531.18359375, -13442.427734375, 136155.421875, -187500.015625, -147188.328125, -187500.015625, -187500.015625, -0.1080000028014183, -0.6320000290870667, 0.7700000405311584, 192.0, 0.0, 0.0, 0.0, 0.0, 0.0, 0.0, 0.0, 0.0, 0.0, 1.613759392149917E9, 2021-02-19 16:29:52.149
188.0, -11302.8076171875, 22533.44140625, -13436.6162109375, 136166.6875, -187500.015625, -147654.4375, -187500.015625, -187500.015625, -0.1080000028014183, -0.6320000290870667, 0.7700000405311584, 192.0, 0.0, 0.0, 0.0, 0.0, 0.0, 0.0, 0.0, 0.0, 0.0, 1.6137593921559052E9, 2021-02-19 16:29:52.155
189.0, -11025.82421875, 22364.796875, -13599.6953125, 136002.40625, -187500.015625, -146537.234375, -187500.015625, -187500.015625, -0.1080000028014183, -0.6320000290870667, 0.7700000405311584, 192.0, 0.0, 0.0, 0.0, 0.0, 0.0, 0.0, 0.0, 0.0, 0.0, 1.613759392159003E9, 2021-02-19 16:29:52.159
233.0, -11469.595703125, 22631.498046875, -13345.6005859375, 136246.75, -187500.015625, -147022.078125, -187500.015625, -187500.015625, -0.1080000028014183, -0.6320000290870667, 0.7700000405311584, 192.0, 0.0, 0.0, 0.0, 0.0, 0.0, 0.0, 0.0, 0.0, 0.0, 1.613759392188975E9, 2021-02-19 16:29:52.188
191.0, -11447.2666015625, 22546.3828125, -13430.603515625, 136168.8125, -187500.015625, -146710.671875, -187500.015625, -187500.015625, -0.1080000028014183, -0.6320000290870667, 0.7700000405311584, 192.0, 0.0, 0.0, 0.0, 0.0, 0.0, 0.0, 0.0, 0.0, 0.0, 1.6137593922299829E9, 2021-02-19 16:29:52.229
231.0, -10982.9091796875, 22363.12109375, -13606.4228515625, 135993.34375, -187500.015625, -145908.546875, -187500.015625, -187500.015625, -0.1080000028014183, -0.6320000290870667, 0.7700000405311584, 192.0, 0.0, 0.0, 0.0, 0.0, 0.0, 0.0, 0.0, 0.0, 0.0, 1.6137593924102352E9, 2021-02-19 16:29:52.410
193.0, -11062.0341796875, 22421.548828125, -13545.603515625, 136065.296875, -187500.015625, -146402.9375, -187500.015625, -187500.015625, -0.1080000028014183, -0.6320000290870667, 0.7700000405311584, 192.0, 0.0, 0.0, 0.0, 0.0, 0.0, 0.0, 0.0, 0.0, 0.0, 1.613759392460282E9, 2021-02-19 16:29:52.460
194.0, -11054.658203125, 22382.431640625, -13584.697265625, 136018.765625, -187500.015625, -145438.0625, -187500.015625, -187500.015625, -0.1080000028014183, -0.6320000290870667, 0.7700000405311584, 192.0, 0.0, 0.0, 0.0, 0.0, 0.0, 0.0, 0.0, 0.0, 0.0, 1.6137593924813683E9, 2021-02-19 16:29:52.481
23.0, -11537.322265625, 22535.228515625, -13455.4365234375, 136125.53125, -187500.015625, -144767.375, -187500.015625, -187500.015625, -0.1080000028014183, -0.6320000290870667, 0.7700000405311584, 192.0, 0.0, 0.0, 0.0, 0.0, 0.0, 0.0, 0.0, 0.0, 0.0, 1.6137593924862363E9, 2021-02-19 16:29:52.486
24.0, -11279.181640625, 22505.322265625, -13479.8896484375, 136105.640625, -187500.015625, -144917.890625, -187500.015625, -187500.015625, -0.1080000028014183, -0.6320000290870667, 0.7700000405311584, 192.0, 0.0, 0.0, 0.0, 0.0, 0.0, 0.0, 0.0, 0.0, 0.0, 1.613759392609419E9, 2021-02-19 16:29:52.609
25.0, -11030.3173828125, 22340.3671875, -13639.6826171875, 135944.78125, -187500.015625, -143535.203125, -187500.015625, -187500.015625, -0.1080000028014183, -0.6320000290870667, 0.7700000405311584, 192.0, 0.0, 0.0, 0.0, 0.0, 0.0, 0.0, 0.0, 0.0, 0.0, 1.6137593926304934E9, 2021-02-19 16:29:52.630
26.0, -11225.7607421875, 22373.044921875, -13611.2509765625, 135966.328125, -187500.015625, -143012.171875, -187500.015625, -187500.015625, -0.1080000028014183, -0.6320000290870667, 0.7700000405311584, 192.0, 0.0, 0.0, 0.0, 0.0, 0.0, 0.0, 0.0, 0.0, 0.0, 1.6137593926345143E9, 2021-02-19 16:29:52.634
27.0, -11506.9013671875, 22570.701171875, -13418.466796875, 136160.875, -187500.015625, -144148.875, -187500.015625, -187500.015625, -0.11000000685453415, -0.628000020980835, 0.7800000309944153, 192.0, 252.0, 144.0, 236.0, 96.0, 24.0, 96.0, 0.0, 0.0, 0.0, 1.6137593926374233E9, 2021-02-19 16:29:52.637
85.0, -11411.615234375, 22514.642578125, -13468.087890625, 136070.59375, -187500.015625, -140110.59375, -187500.015625, -187500.015625, -0.11000000685453415, -0.628000020980835, 0.7800000309944153, 192.0, 0.0, 0.0, 0.0, 0.0, 0.0, 0.0, 0.0, 0.0, 0.0, 1.613759392672544E9, 2021-02-19 16:29:52.672
29.0, -11069.455078125, 22318.349609375, -13661.654296875, 135923.078125, -187500.015625, -143229.140625, -187500.015625, -187500.015625, -0.11000000685453415, -0.628000020980835, 0.7800000309944153, 192.0, 0.0, 0.0, 0.0, 0.0, 0.0, 0.0, 0.0, 0.0, 0.0, 1.613759392675519E9, 2021-02-19 16:29:52.675
83.0, -11092.4326171875, 22429.103515625, -13549.6494140625, 136006.140625, -187500.015625, -140447.09375, -187500.015625, -187500.015625, -0.11000000685453415, -0.628000020980835, 0.7800000309944153, 192.0, 0.0, 0.0, 0.0, 0.0, 0.0, 0.0, 0.0, 0.0, 0.0, 1.61375939280663E9, 2021-02-19 16:29:52.806
31.0, -11529.38671875, 22532.61328125, -13456.0625, 136116.46875, -187500.015625, -143420.046875, -187500.015625, -187500.015625, -0.11000000685453415, -0.628000020980835, 0.7800000309944153, 192.0, 0.0, 0.0, 0.0, 0.0, 0.0, 0.0, 0.0, 0.0, 0.0, 1.6137593928658786E9, 2021-02-19 16:29:52.865
32.0, -11381.8876953125, 22572.98046875, -13413.8173828125, 136166.375, -187500.015625, -144318.078125, -187500.015625, -187500.015625, -0.11000000685453415, -0.628000020980835, 0.7800000309944153, 192.0, 0.0, 0.0, 0.0, 0.0, 0.0, 0.0, 0.0, 0.0, 0.0, 1.6137593928767092E9, 2021-02-19 16:29:52.876
139.0, -11349.232421875, 22439.205078125, -13548.0400390625, 135980.984375, -187500.015625, -140719.25, -187500.015625, -187500.015625, -0.11000000685453415, -0.628000020980835, 0.7800000309944153, 192.0, 0.0, 0.0, 0.0, 0.0, 0.0, 0.0, 0.0, 0.0, 0.0, 1.613759392946833E9, 2021-02-19 16:29:52.946
140.0, -11504.375, 22563.66015625, -13427.1396484375, 136107.90625, -187500.015625, -141971.328125, -187500.015625, -187500.015625, -0.11000000685453415, -0.628000020980835, 0.7800000309944153, 192.0, 0.0, 0.0, 0.0, 0.0, 0.0, 0.0, 0.0, 0.0, 0.0, 1.613759392996831E9, 2021-02-19 16:29:52.996
141.0, -11234.9248046875, 22461.9609375, -13524.5703125, 136015.046875, -187500.015625, -141866.609375, -187500.015625, -187500.015625, -0.11000000685453415, -0.628000020980835, 0.7800000309944153, 192.0, 0.0, 0.0, 0.0, 0.0, 0.0, 0.0, 0.0, 0.0, 0.0, 1.6137593931480358E9, 2021-02-19 16:29:53.148
142.0, -11024.259765625, 22311.15234375, -13672.494140625, 135865.390625, -187500.015625, -140536.90625, -187500.015625, -187500.015625, -0.11000000685453415, -0.628000020980835, 0.7800000309944153, 192.0, 0.0, 0.0, 0.0, 0.0, 0.0, 0.0, 0.0, 0.0, 0.0, 1.6137593931732197E9, 2021-02-19 16:29:53.173
143.0, -11300.7958984375, 22350.1796875, -13638.8994140625, 135891.3125, -187500.015625, -140295.609375, -187500.015625, -187500.015625, -0.11000000685453415, -0.628000020980835, 0.7800000309944153, 192.0, 0.0, 0.0, 0.0, 0.0, 0.0, 0.0, 0.0, 0.0, 0.0, 1.613759393198098E9, 2021-02-19 16:29:53.198
216.0, -11266.4638671875, 22539.810546875, -13442.5400390625, 136110.46875, -187500.015625, -138009.34375, -187500.015625, -187500.015625, -0.11000000685453415, -0.628000020980835, 0.7800000309944153, 192.0, 0.0, 0.0, 0.0, 0.0, 0.0, 0.0, 0.0, 0.0, 0.0, 1.6137593932022376E9, 2021-02-19 16:29:53.202
217.0, -11021.734375, 22362.875, -13616.123046875, 135934.140625, -187500.015625, -136857.328125, -187500.015625, -187500.015625, -0.11000000685453415, -0.628000020980835, 0.7800000309944153, 192.0, 0.0, 0.0, 0.0, 0.0, 0.0, 0.0, 0.0, 0.0, 0.0, 1.6137593932281816E9, 2021-02-19 16:29:53.228
218.0, -11233.5615234375, 22414.955078125, -13570.0791015625, 135973.5, -187500.015625, -136621.296875, -187500.015625, -187500.015625, -0.11000000685453415, -0.628000020980835, 0.7800000309944153, 192.0, 0.0, 0.0, 0.0, 0.0, 0.0, 0.0, 0.0, 0.0, 0.0, 1.6137593932531433E9, 2021-02-19 16:29:53.253
219.0, -11518.0546875, 22595.623046875, -13396.5400390625, 136151.25, -187500.015625, -138045.3125, -187500.015625, -187500.015625, -0.11000000685453415, -0.628000020980835, 0.7800000309944153, 192.0, 0.0, 0.0, 0.0, 0.0, 0.0, 0.0, 0.0, 0.0, 0.0, 1.6137593932793548E9, 2021-02-19 16:29:53.279
220.0, -11315.97265625, 22569.875, -13420.4111328125, 136136.328125, -187500.015625, -138659.53125, -187500.015625, -187500.015625, -0.11000000685453415, -0.628000020980835, 0.7800000309944153, 192.0, 0.0, 0.0, 0.0, 0.0, 0.0, 0.0, 0.0, 0.0, 0.0, 1.6137593932992866E9, 2021-02-19 16:29:53.299
221.0, -11033.1337890625, 22394.390625, -13593.4140625, 135968.140625, -187500.015625, -137596.125, -187500.015625, -187500.015625, -0.11000000685453415, -0.628000020980835, 0.7800000309944153, 192.0, 0.0, 0.0, 0.0, 0.0, 0.0, 0.0, 0.0, 0.0, 0.0, 1.6137593933041823E9, 2021-02-19 16:29:53.304
222.0, -11146.61328125, 22401.07421875, -13591.0673828125, 135965.34375, -187500.015625, -137071.234375, -187500.015625, -187500.015625, -0.11000000685453415, -0.628000020980835, 0.7800000309944153, 192.0, 0.0, 0.0, 0.0, 0.0, 0.0, 0.0, 0.0, 0.0, 0.0, 1.6137593933583405E9, 2021-02-19 16:29:53.358
223.0, -11493.1103515625, 22588.828125, -13407.4697265625, 136146.125, -187500.015625, -138342.46875, -187500.015625, -187500.015625, -0.11000000685453415, -0.628000020980835, 0.7800000309944153, 192.0, 0.0, 0.0, 0.0, 0.0, 0.0, 0.0, 0.0, 0.0, 0.0, 1.6137593933943048E9, 2021-02-19 16:29:53.394
224.0, -11351.9365234375, 22630.40234375, -13361.849609375, 136196.078125, -187500.015625, -139271.390625, -187500.015625, -187500.015625, -0.11000000685453415, -0.64000004529953, 0.7620000243186951, 192.0, 252.0, 144.0, 236.0, 0.0, 23.0, 208.0, 0.0, 0.0, 0.0, 1.6137593933984964E9, 2021-02-19 16:29:53.398
225.0, -11049.2041015625, 22442.783203125, -13546.0283203125, 136015.234375, -187500.015625, -138395.09375, -187500.015625, -187500.015625, -0.11000000685453415, -0.64000004529953, 0.7620000243186951, 192.0, 0.0, 0.0, 0.0, 0.0, 0.0, 0.0, 0.0, 0.0, 0.0, 1.6137593934083085E9, 2021-02-19 16:29:53.408
226.0, -11077.412109375, 22389.427734375, -13602.6904296875, 135952.671875, -187500.015625, -137586.578125, -187500.015625, -187500.015625, -0.11000000685453415, -0.64000004529953, 0.7620000243186951, 192.0, 0.0, 0.0, 0.0, 0.0, 0.0, 0.0, 0.0, 0.0, 0.0, 1.6137593934124105E9, 2021-02-19 16:29:53.412
227.0, -11441.298828125, 22585.38671875, -13414.443359375, 136140.875, -187500.015625, -138642.59375, -187500.015625, -187500.015625, -0.11000000685453415, -0.64000004529953, 0.7620000243186951, 192.0, 0.0, 0.0, 0.0, 0.0, 0.0, 0.0, 0.0, 0.0, 0.0, 1.613759393415309E9, 2021-02-19 16:29:53.415
228.0, -11398.9873046875, 22609.2578125, -13391.64453125, 136173.109375, -187500.015625, -139800.515625, -187500.015625, -187500.015625, -0.11000000685453415, -0.64000004529953, 0.7620000243186951, 192.0, 0.0, 0.0, 0.0, 0.0, 0.0, 0.0, 0.0, 0.0, 0.0, 1.6137593934343228E9, 2021-02-19 16:29:53.434
229.0, -11101.41796875, 22445.0390625, -13554.41015625, 136013.734375, -187500.015625, -139162.578125, -187500.015625, -187500.015625, -0.11000000685453415, -0.64000004529953, 0.7620000243186951, 192.0, 0.0, 0.0, 0.0, 0.0, 0.0, 0.0, 0.0, 0.0, 0.0, 1.613759393458366E9, 2021-02-19 16:29:53.458
230.0, -11047.505859375, 22359.544921875, -13640.5986328125, 135923.25, -187500.015625, -138139.40625, -187500.015625, -187500.015625, -0.11000000685453415, -0.64000004529953, 0.7620000243186951, 192.0, 0.0, 0.0, 0.0, 0.0, 0.0, 0.0, 0.0, 0.0, 0.0, 1.6137593934844372E9, 2021-02-19 16:29:53.484
231.0, -11397.5341796875, 22541.666015625, -13464.1982421875, 136095.875, -187500.015625, -138900.03125, -187500.015625, -187500.015625, -0.11000000685453415, -0.64000004529953, 0.7620000243186951, 192.0, 0.0, 0.0, 0.0, 0.0, 0.0, 0.0, 0.0, 0.0, 0.0, 1.6137593934904594E9, 2021-02-19 16:29:53.490
232.0, -11450.10546875, 22615.248046875, -13387.62109375, 136173.4375, -187500.015625, -140240.265625, -187500.015625, -187500.015625, -0.11000000685453415, -0.64000004529953, 0.7620000243186951, 192.0, 0.0, 0.0, 0.0, 0.0, 0.0, 0.0, 0.0, 0.0, 0.0, 1.6137593935254972E9, 2021-02-19 16:29:53.525
233.0, -11150.748046875, 22492.6484375, -13502.7998046875, 136059.75, -187500.015625, -139910.53125, -187500.015625, -187500.015625, -0.11000000685453415, -0.64000004529953, 0.7620000243186951, 192.0, 0.0, 0.0, 0.0, 0.0, 0.0, 0.0, 0.0, 0.0, 0.0, 1.6137593935795667E9, 2021-02-19 16:29:53.579
234.0, -11010.0, 22355.453125, -13637.6708984375, 135921.4375, -187500.015625, -138729.046875, -187500.015625, -187500.015625, -0.12000000476837158, -0.64000004529953, 0.7680000066757202, 192.0, 252.0, 64.0, 236.0, 0.0, 24.0, 0.0, 0.0, 0.0, 0.0, 1.6137593935916097E9, 2021-02-19 16:29:53.591
235.0, -11351.6240234375, 22448.99609375, -13551.146484375, 136000.765625, -187500.015625, -139066.3125, -187500.015625, -187500.015625, -0.12000000476837158, -0.64000004529953, 0.7680000066757202, 192.0, 0.0, 0.0, 0.0, 0.0, 0.0, 0.0, 0.0, 0.0, 0.0, 1.6137593935945673E9, 2021-02-19 16:29:53.594
236.0, -11501.6259765625, 22614.2421875, -13389.611328125, 136169.75, -187500.015625, -140489.03125, -187500.015625, -187500.015625, -0.12000000476837158, -0.64000004529953, 0.7680000066757202, 192.0, 0.0, 0.0, 0.0, 0.0, 0.0, 0.0, 0.0, 0.0, 0.0, 1.6137593936175652E9, 2021-02-19 16:29:53.617
254.0, -11085.0341796875, 22542.046875, -13455.5712890625, 136114.09375, -187500.015625, -143506.53125, -187500.015625, -187500.015625, -0.11400000751018524, -0.6320000290870667, 0.784000039100647, 192.0, 252.0, 112.0, 236.0, 64.0, 24.0, 128.0, 0.0, 0.0, 0.0, 1.613759393624584E9, 2021-02-19 16:29:53.624
37.0, -11201.375, 22344.658203125, -13655.060546875, 135907.203125, -187500.015625, -143041.75, -187500.015625, -187500.015625, -0.10600000619888306, -0.6240000128746033, 0.7660000324249268, 192.0, 252.0, 176.0, 236.0, 128.0, 23.0, 240.0, 0.0, 0.0, 0.0, 1.6137593936287625E9, 2021-02-19 16:29:53.628
244.0, -11501.0224609375, 22616.767578125, -13386.0341796875, 136169.484375, -187500.015625, -141491.40625, -187500.015625, -187500.015625, -0.1120000034570694, -0.6380000114440918, 0.7700000405311584, 192.0, 252.0, 128.0, 236.0, 16.0, 24.0, 16.0, 0.0, 0.0, 0.0, 1.6137593936316352E9, 2021-02-19 16:29:53.631
26.0, -11521.1396484375, 22586.794921875, -13416.208984375, 136144.734375, -187500.015625, -144989.859375, -187500.015625, -187500.015625, -0.1120000034570694, -0.6380000114440918, 0.7700000405311584, 192.0, 0.0, 0.0, 0.0, 0.0, 0.0, 0.0, 0.0, 0.0, 0.0, 1.6137593936375623E9, 2021-02-19 16:29:53.637
35.0, -11291.251953125, 22535.564453125, -13464.82421875, 136105.171875, -187500.015625, -144950.59375, -187500.015625, -187500.015625, -0.1120000034570694, -0.6380000114440918, 0.7700000405311584, 192.0, 0.0, 0.0, 0.0, 0.0, 0.0, 0.0, 0.0, 0.0, 0.0, 1.61375939364161E9, 2021-02-19 16:29:53.641
7.0, -10984.8984375, 22344.435546875, -13653.361328125, 135916.90625, -187500.015625, -144150.234375, -187500.015625, -187500.015625, -0.1120000034570694, -0.6380000114440918, 0.7700000405311584, 192.0, 0.0, 0.0, 0.0, 0.0, 0.0, 0.0, 0.0, 0.0, 0.0, 1.613759393656642E9, 2021-02-19 16:29:53.656
33.0, -11258.0810546875, 22421.32421875, -13577.767578125, 135979.578125, -187500.015625, -143349.84375, -187500.015625, -187500.015625, -0.1120000034570694, -0.6380000114440918, 0.7700000405311584, 192.0, 0.0, 0.0, 0.0, 0.0, 0.0, 0.0, 0.0, 0.0, 0.0, 1.6137593936606572E9, 2021-02-19 16:29:53.660
84.0, -11544.83203125, 22528.880859375, -13479.7109375, 136083.765625, -187500.015625, -140515.328125, -187500.015625, -187500.015625, -0.1120000034570694, -0.6380000114440918, 0.7700000405311584, 192.0, 0.0, 0.0, 0.0, 0.0, 0.0, 0.0, 0.0, 0.0, 0.0, 1.613759393674666E9, 2021-02-19 16:29:53.674
12.0, -11192.5458984375, 22445.330078125, -13558.6123046875, 136001.171875, -187500.015625, -143703.765625, -187500.015625, -187500.015625, -0.1120000034570694, -0.6380000114440918, 0.7700000405311584, 192.0, 0.0, 0.0, 0.0, 0.0, 0.0, 0.0, 0.0, 0.0, 0.0, 1.6137593936896584E9, 2021-02-19 16:29:53.689
20.0, -11097.7529296875, 22333.6171875, -13664.224609375, 135892.40625, -187500.015625, -143610.109375, -187500.015625, -187500.015625, -0.1120000034570694, -0.6380000114440918, 0.7700000405311584, 192.0, 0.0, 0.0, 0.0, 0.0, 0.0, 0.0, 0.0, 0.0, 0.0, 1.6137593936939232E9, 2021-02-19 16:29:53.693
82.0, -11033.0439453125, 22322.5078125, -13679.3564453125, 135890.75, -187500.015625, -139766.921875, -187500.015625, -187500.015625, -0.1120000034570694, -0.6380000114440918, 0.7700000405311584, 192.0, 0.0, 0.0, 0.0, 0.0, 0.0, 0.0, 0.0, 0.0, 0.0, 1.6137593936966455E9, 2021-02-19 16:29:53.696
80.0, -11520.2451171875, 22593.923828125, -13417.6845703125, 136145.703125, -187500.015625, -141055.34375, -187500.015625, -187500.015625, -0.1120000034570694, -0.6380000114440918, 0.7700000405311584, 192.0, 0.0, 0.0, 0.0, 0.0, 0.0, 0.0, 0.0, 0.0, 0.0, 1.6137593937176795E9, 2021-02-19 16:29:53.717
61.0, -11051.640625, 22360.169921875, -13634.98828125, 135933.25, -187500.015625, -141640.359375, -187500.015625, -187500.015625, -0.1120000034570694, -0.6380000114440918, 0.7700000405311584, 192.0, 0.0, 0.0, 0.0, 0.0, 0.0, 0.0, 0.0, 0.0, 0.0, 1.6137593937207212E9, 2021-02-19 16:29:53.720
59.0, -11539.0654296875, 22554.943359375, -13448.216796875, 136110.578125, -187500.015625, -142534.40625, -187500.015625, -187500.015625, -0.1120000034570694, -0.6380000114440918, 0.7700000405311584, 192.0, 0.0, 0.0, 0.0, 0.0, 0.0, 0.0, 0.0, 0.0, 0.0, 1.6137593937247825E9, 2021-02-19 16:29:53.724
78.0, -11040.15234375, 22285.11328125, -13715.9013671875, 135847.484375, -187500.015625, -139864.609375, -187500.015625, -187500.015625, -0.1120000034570694, -0.6380000114440918, 0.7700000405311584, 192.0, 0.0, 0.0, 0.0, 0.0, 0.0, 0.0, 0.0, 0.0, 0.0, 1.6137593937307272E9, 2021-02-19 16:29:53.730
48.0, -11151.798828125, 22413.30078125, -13587.423828125, 135979.8125, -187500.015625, -143264.21875, -187500.015625, -187500.015625, -0.1120000034570694, -0.6380000114440918, 0.7700000405311584, 192.0, 0.0, 0.0, 0.0, 0.0, 0.0, 0.0, 0.0, 0.0, 0.0, 1.6137593937346995E9, 2021-02-19 16:29:53.734
71.0, -11457.9287109375, 22455.03125, -13552.2421875, 136005.203125, -187500.015625, -140733.21875, -187500.015625, -187500.015625, -0.1120000034570694, -0.6380000114440918, 0.7700000405311584, 192.0, 0.0, 0.0, 0.0, 0.0, 0.0, 0.0, 0.0, 0.0, 0.0, 1.6137593937397218E9, 2021-02-19 16:29:53.739
76.0, -11544.228515625, 22588.359375, -13421.037109375, 136143.265625, -187500.015625, -141527.359375, -187500.015625, -187500.015625, -0.1080000028014183, -0.6260000467300415, 0.7760000228881836, 192.0, 252.0, 160.0, 236.0, 112.0, 24.0, 64.0, 0.0, 0.0, 0.0, 1.6137593937428567E9, 2021-02-19 16:29:53.742
51.0, -11501.3798828125, 22560.93359375, -13443.2998046875, 136118.390625, -187500.015625, -143440.859375, -187500.015625, -187500.015625, -0.1080000028014183, -0.6260000467300415, 0.7760000228881836, 192.0, 0.0, 0.0, 0.0, 0.0, 0.0, 0.0, 0.0, 0.0, 0.0, 1.6137593937627344E9, 2021-02-19 16:29:53.762
49.0, -11054.1884765625, 22307.978515625, -13689.2802734375, 135869.921875, -187500.015625, -141877.265625, -187500.015625, -187500.015625, -0.1080000028014183, -0.6260000467300415, 0.7760000228881836, 192.0, 0.0, 0.0, 0.0, 0.0, 0.0, 0.0, 0.0, 0.0, 0.0, 1.6137593937699893E9, 2021-02-19 16:29:53.769
74.0, -11094.0869140625, 22219.443359375, -13782.95703125, 135785.796875, -187500.015625, -139893.53125, -187500.015625, -187500.015625, -0.1080000028014183, -0.6260000467300415, 0.7760000228881836, 192.0, 0.0, 0.0, 0.0, 0.0, 0.0, 0.0, 0.0, 0.0, 0.0, 1.6137593938007536E9, 2021-02-19 16:29:53.800
62.0, -11181.548828125, 22338.220703125, -13659.6201171875, 135899.703125, -187500.015625, -140931.203125, -187500.015625, -187500.015625, -0.1080000028014183, -0.6260000467300415, 0.7760000228881836, 192.0, 0.0, 0.0, 0.0, 0.0, 0.0, 0.0, 0.0, 0.0, 0.0, 1.6137593938059242E9, 2021-02-19 16:29:53.805
94.0, -11135.482421875, 22426.263671875, -13575.353515625, 135993.125, -187500.015625, -140237.765625, -187500.015625, -187500.015625, -0.1080000028014183, -0.6260000467300415, 0.7760000228881836, 192.0, 0.0, 0.0, 0.0, 0.0, 0.0, 0.0, 0.0, 0.0, 0.0, 1.6137593938097856E9, 2021-02-19 16:29:53.809
72.0, -11499.4580078125, 22545.041015625, -13463.5732421875, 136102.359375, -187500.015625, -141831.109375, -187500.015625, -187500.015625, -0.1080000028014183, -0.6260000467300415, 0.7760000228881836, 192.0, 0.0, 0.0, 0.0, 0.0, 0.0, 0.0, 0.0, 0.0, 0.0, 1.613759393814793E9, 2021-02-19 16:29:53.814
91.0, -11100.501953125, 22342.869140625, -13657.9658203125, 135903.40625, -187500.015625, -139044.8125, -187500.015625, -187500.015625, -0.1080000028014183, -0.6260000467300415, 0.7760000228881836, 192.0, 0.0, 0.0, 0.0, 0.0, 0.0, 0.0, 0.0, 0.0, 0.0, 1.6137593938298278E9, 2021-02-19 16:29:53.829
88.0, -11517.16015625, 22540.861328125, -13469.138671875, 136092.59375, -187500.015625, -140156.390625, -187500.015625, -187500.015625, -0.1080000028014183, -0.6260000467300415, 0.7760000228881836, 192.0, 0.0, 0.0, 0.0, 0.0, 0.0, 0.0, 0.0, 0.0, 0.0, 1.613759393833816E9, 2021-02-19 16:29:53.833
89.0, -11391.767578125, 22582.591796875, -13424.14453125, 136144.09375, -187500.015625, -140982.75, -187500.015625, -187500.015625, -0.1080000028014183, -0.6260000467300415, 0.7760000228881836, 192.0, 0.0, 0.0, 0.0, 0.0, 0.0, 0.0, 0.0, 0.0, 0.0, 1.613759393837896E9, 2021-02-19 16:29:53.837
95.0, -11081.32421875, 22306.19140625, -13696.03125, 135867.171875, -187500.015625, -139059.671875, -187500.015625, -187500.015625, -0.1080000028014183, -0.6260000467300415, 0.7760000228881836, 192.0, 0.0, 0.0, 0.0, 0.0, 0.0, 0.0, 0.0, 0.0, 0.0, 1.6137593938447983E9, 2021-02-19 16:29:53.844
105.0, -11521.2958984375, 22592.271484375, -13422.4228515625, 136144.453125, -187500.015625, -141334.4375, -187500.015625, -187500.015625, -0.1080000028014183, -0.6260000467300415, 0.7760000228881836, 192.0, 0.0, 0.0, 0.0, 0.0, 0.0, 0.0, 0.0, 0.0, 0.0, 1.6137593938790982E9, 2021-02-19 16:29:53.879
97.0, -11485.0859375, 22604.609375, -13410.21875, 136159.734375, -187500.015625, -141041.71875, -187500.015625, -187500.015625, -0.1080000028014183, -0.6260000467300415, 0.7760000228881836, 192.0, 0.0, 0.0, 0.0, 0.0, 0.0, 0.0, 0.0, 0.0, 0.0, 1.613759393896039E9, 2021-02-19 16:29:53.896
98.0, -11167.087890625, 22508.541015625, -13502.95703125, 136073.265625, -187500.015625, -140815.78125, -187500.015625, -187500.015625, -0.1080000028014183, -0.6260000467300415, 0.7760000228881836, 192.0, 0.0, 0.0, 0.0, 0.0, 0.0, 0.0, 0.0, 0.0, 0.0, 1.61375939391701E9, 2021-02-19 16:29:53.917
109.0, -11508.1533203125, 22625.642578125, -13388.828125, 136173.734375, -187500.015625, -141335.890625, -187500.015625, -187500.015625, -0.1080000028014183, -0.6260000467300415, 0.7760000228881836, 192.0, 0.0, 0.0, 0.0, 0.0, 0.0, 0.0, 0.0, 0.0, 0.0, 1.6137593939470592E9, 2021-02-19 16:29:53.947
100.0, -11356.5185546875, 22471.37109375, -13541.71484375, 136020.4375, -187500.015625, -139930.1875, -187500.015625, -187500.015625, -0.1080000028014183, -0.6260000467300415, 0.7760000228881836, 192.0, 0.0, 0.0, 0.0, 0.0, 0.0, 0.0, 0.0, 0.0, 0.0, 1.6137593939510045E9, 2021-02-19 16:29:53.951
106.0, -11272.185546875, 22570.65625, -13440.3046875, 136133.421875, -187500.015625, -141674.15625, -187500.015625, -187500.015625, -0.10600000619888306, -0.628000020980835, 0.7760000228881836, 192.0, 252.0, 176.0, 236.0, 96.0, 24.0, 64.0, 0.0, 0.0, 0.0, 1.6137593939560235E9, 2021-02-19 16:29:53.956
113.0, -11523.9775390625, 22514.28515625, -13499.0673828125, 136059.015625, -187500.015625, -141223.875, -187500.015625, -187500.015625, -0.10600000619888306, -0.628000020980835, 0.7760000228881836, 192.0, 0.0, 0.0, 0.0, 0.0, 0.0, 0.0, 0.0, 0.0, 0.0, 1.6137593939779613E9, 2021-02-19 16:29:53.977
119.0, -11146.5244140625, 22448.59375, -13559.953125, 136010.890625, -187500.015625, -141502.109375, -187500.015625, -187500.015625, -0.10600000619888306, -0.628000020980835, 0.7760000228881836, 192.0, 0.0, 0.0, 0.0, 0.0, 0.0, 0.0, 0.0, 0.0, 0.0, 1.6137593939981043E9, 2021-02-19 16:29:53.998
114.0, -11422.166015625, 22568.98046875, -13441.3330078125, 136122.65625, -187500.015625, -142158.96875, -187500.015625, -187500.015625, -0.10600000619888306, -0.628000020980835, 0.7760000228881836, 192.0, 0.0, 0.0, 0.0, 0.0, 0.0, 0.0, 0.0, 0.0, 0.0, 1.613759394023062E9, 2021-02-19 16:29:54.023
115.0, -11109.7998046875, 22400.626953125, -13604.0986328125, 135963.265625, -187500.015625, -141261.09375, -187500.015625, -187500.015625, -0.10600000619888306, -0.628000020980835, 0.7760000228881836, 192.0, 0.0, 0.0, 0.0, 0.0, 0.0, 0.0, 0.0, 0.0, 0.0, 1.6137593940442033E9, 2021-02-19 16:29:54.044
139.0, -11378.5576171875, 22615.11328125, -13401.412109375, 136164.546875, -187500.015625, -142437.78125, -187500.015625, -187500.015625, -0.10600000619888306, -0.628000020980835, 0.7760000228881836, 192.0, 0.0, 0.0, 0.0, 0.0, 0.0, 0.0, 0.0, 0.0, 0.0, 1.6137593940470648E9, 2021-02-19 16:29:54.047
120.0, -11036.8212890625, 22375.951171875, -13630.5849609375, 135934.765625, -187500.015625, -140360.484375, -187500.015625, -187500.015625, -0.10600000619888306, -0.628000020980835, 0.7760000228881836, 192.0, 0.0, 0.0, 0.0, 0.0, 0.0, 0.0, 0.0, 0.0, 0.0, 1.613759394056182E9, 2021-02-19 16:29:54.056
121.0, -11377.5517578125, 22499.17578125, -13514.2216796875, 136045.078125, -187500.015625, -141004.546875, -187500.015625, -187500.015625, -0.10600000619888306, -0.628000020980835, 0.7760000228881836, 192.0, 0.0, 0.0, 0.0, 0.0, 0.0, 0.0, 0.0, 0.0, 0.0, 1.6137593940773091E9, 2021-02-19 16:29:54.077
128.0, -11013.84375, 22322.328125, -13680.384765625, 135879.953125, -187500.015625, -140841.5625, -187500.015625, -187500.015625, -0.10600000619888306, -0.628000020980835, 0.7760000228881836, 192.0, 0.0, 0.0, 0.0, 0.0, 0.0, 0.0, 0.0, 0.0, 0.0, 1.6137593940822632E9, 2021-02-19 16:29:54.082
136.0, -11062.01171875, 22389.427734375, -13622.4716796875, 135945.96875, -187500.015625, -141343.203125, -187500.015625, -187500.015625, -0.11000000685453415, -0.6320000290870667, 0.7760000228881836, 192.0, 252.0, 144.0, 236.0, 64.0, 24.0, 64.0, 0.0, 0.0, 0.0, 1.6137593940862012E9, 2021-02-19 16:29:54.086
160.0, -11364.38671875, 22587.890625, -13428.7490234375, 136138.28125, -187500.015625, -142162.03125, -187500.015625, -187500.015625, -0.11000000685453415, -0.6320000290870667, 0.7760000228881836, 192.0, 0.0, 0.0, 0.0, 0.0, 0.0, 0.0, 0.0, 0.0, 0.0, 1.6137593941292129E9, 2021-02-19 16:29:54.129
142.0, -11410.0732421875, 22531.474609375, -13482.5498046875, 136076.984375, -187500.015625, -141108.171875, -187500.015625, -187500.015625, -0.11000000685453415, -0.6320000290870667, 0.7760000228881836, 192.0, 0.0, 0.0, 0.0, 0.0, 0.0, 0.0, 0.0, 0.0, 0.0, 1.6137593941322558E9, 2021-02-19 16:29:54.132
126.0, -11493.646484375, 22638.427734375, -13376.8701171875, 136185.515625, -187500.015625, -142164.328125, -187500.015625, -187500.015625, -0.11400000751018524, -0.6300000548362732, 0.7680000066757202, 192.0, 252.0, 112.0, 236.0, 80.0, 24.0, 0.0, 0.0, 0.0, 0.0, 1.6137593941351912E9, 2021-02-19 16:29:54.135
158.0, -11185.4833984375, 22365.400390625, -13648.064453125, 135912.234375, -187500.015625, -140290.03125, -187500.015625, -187500.015625, -0.11400000751018524, -0.6300000548362732, 0.7680000066757202, 192.0, 0.0, 0.0, 0.0, 0.0, 0.0, 0.0, 0.0, 0.0, 0.0, 1.6137593941561785E9, 2021-02-19 16:29:54.156
177.0, -11279.337890625, 22490.212890625, -13524.34765625, 136044.015625, -187500.015625, -141680.078125, -187500.015625, -187500.015625, -0.11400000751018524, -0.6300000548362732, 0.7680000066757202, 192.0, 0.0, 0.0, 0.0, 0.0, 0.0, 0.0, 0.0, 0.0, 0.0, 1.6137593941631787E9, 2021-02-19 16:29:54.163
140.0, -11074.373046875, 22443.474609375, -13566.748046875, 136001.375, -187500.015625, -141489.984375, -187500.015625, -187500.015625, -0.11400000751018524, -0.6300000548362732, 0.7680000066757202, 192.0, 0.0, 0.0, 0.0, 0.0, 0.0, 0.0, 0.0, 0.0, 0.0, 1.613759394223353E9, 2021-02-19 16:29:54.223
143.0, -11437.1416015625, 22614.466796875, -13401.591796875, 136166.6875, -187500.015625, -142285.953125, -187500.015625, -187500.015625, -0.11400000751018524, -0.6300000548362732, 0.7680000066757202, 192.0, 0.0, 0.0, 0.0, 0.0, 0.0, 0.0, 0.0, 0.0, 0.0, 1.6137593942382996E9, 2021-02-19 16:29:54.238
155.0, -11530.4150390625, 22561.044921875, -13453.6484375, 136104.21875, -187500.015625, -141762.734375, -187500.015625, -187500.015625, -0.10200000554323196, -0.6380000114440918, 0.7740000486373901, 192.0, 252.0, 208.0, 236.0, 16.0, 24.0, 48.0, 0.0, 0.0, 0.0, 1.6137593942493074E9, 2021-02-19 16:29:54.249
175.0, -11322.7451171875, 22418.955078125, -13596.140625, 135959.71875, -187500.015625, -140234.078125, -187500.015625, -187500.015625, -0.11000000685453415, -0.6300000548362732, 0.7780000567436218, 192.0, 252.0, 144.0, 236.0, 80.0, 24.0, 80.0, 0.0, 0.0, 0.0, 1.6137593942543423E9, 2021-02-19 16:29:54.254
148.0, -11192.8369140625, 22489.966796875, -13520.994140625, 136047.984375, -187500.015625, -141980.4375, -187500.015625, -187500.015625, -0.11000000685453415, -0.6300000548362732, 0.7780000567436218, 192.0, 0.0, 0.0, 0.0, 0.0, 0.0, 0.0, 0.0, 0.0, 0.0, 1.6137593942583644E9, 2021-02-19 16:29:54.258
153.0, -11048.310546875, 22300.1328125, -13706.044921875, 135858.09375, -187500.015625, -140744.0625, -187500.015625, -187500.015625, -0.11000000685453415, -0.6300000548362732, 0.7780000567436218, 192.0, 0.0, 0.0, 0.0, 0.0, 0.0, 0.0, 0.0, 0.0, 0.0, 1.6137593942663968E9, 2021-02-19 16:29:54.266
173.0, -11217.53515625, 22475.728515625, -13542.0498046875, 136030.796875, -187500.015625, -141595.875, -187500.015625, -187500.015625, -0.11000000685453415, -0.6300000548362732, 0.7780000567436218, 192.0, 0.0, 0.0, 0.0, 0.0, 0.0, 0.0, 0.0, 0.0, 0.0, 1.6137593942703218E9, 2021-02-19 16:29:54.270
171.0, -11372.9921875, 22484.802734375, -13538.451171875, 136025.21875, -187500.015625, -140523.125, -187500.015625, -187500.015625, -0.11000000685453415, -0.6300000548362732, 0.7780000567436218, 192.0, 0.0, 0.0, 0.0, 0.0, 0.0, 0.0, 0.0, 0.0, 0.0, 1.613759394273548E9, 2021-02-19 16:29:54.273
196.0, -11375.5625, 22440.79296875, -13584.294921875, 135971.828125, -187500.015625, -139999.4375, -187500.015625, -187500.015625, -0.11000000685453415, -0.6300000548362732, 0.7780000567436218, 192.0, 0.0, 0.0, 0.0, 0.0, 0.0, 0.0, 0.0, 0.0, 0.0, 1.613759394283302E9, 2021-02-19 16:29:54.283
194.0, -11219.994140625, 22383.326171875, -13636.59765625, 135926.90625, -187500.015625, -141004.484375, -187500.015625, -187500.015625, -0.11000000685453415, -0.6300000548362732, 0.7780000567436218, 192.0, 0.0, 0.0, 0.0, 0.0, 0.0, 0.0, 0.0, 0.0, 0.0, 1.6137593942863746E9, 2021-02-19 16:29:54.286
169.0, -11164.2265625, 22431.16015625, -13586.373046875, 135987.0625, -187500.015625, -141439.625, -187500.015625, -187500.015625, -0.11000000685453415, -0.6300000548362732, 0.7780000567436218, 192.0, 0.0, 0.0, 0.0, 0.0, 0.0, 0.0, 0.0, 0.0, 0.0, 1.6137593942923696E9, 2021-02-19 16:29:54.292
221.0, -11367.5830078125, 22416.5859375, -13603.025390625, 135944.171875, -187500.015625, -139445.5625, -187500.015625, -187500.015625, -0.11000000685453415, -0.6300000548362732, 0.7780000567436218, 192.0, 0.0, 0.0, 0.0, 0.0, 0.0, 0.0, 0.0, 0.0, 0.0, 1.6137593942984183E9, 2021-02-19 16:29:54.298
201.0, -11540.8984375, 22572.244140625, -13454.498046875, 136102.765625, -187500.015625, -141061.3125, -187500.015625, -187500.015625, -0.11000000685453415, -0.6300000548362732, 0.7780000567436218, 192.0, 0.0, 0.0, 0.0, 0.0, 0.0, 0.0, 0.0, 0.0, 0.0, 1.6137593943234262E9, 2021-02-19 16:29:54.323
180.0, -11552.8115234375, 22571.908203125, -13448.1279296875, 136111.40625, -187500.015625, -141244.046875, -187500.015625, -187500.015625, -0.11000000685453415, -0.6300000548362732, 0.7780000567436218, 192.0, 0.0, 0.0, 0.0, 0.0, 0.0, 0.0, 0.0, 0.0, 0.0, 1.6137593943335943E9, 2021-02-19 16:29:54.333
208.0, -11165.4111328125, 22329.861328125, -13688.0068359375, 135864.046875, -187500.015625, -139338.78125, -187500.015625, -187500.015625, -0.11000000685453415, -0.6300000548362732, 0.7780000567436218, 192.0, 0.0, 0.0, 0.0, 0.0, 0.0, 0.0, 0.0, 0.0, 0.0, 1.613759394337584E9, 2021-02-19 16:29:54.337
219.0, -11217.580078125, 22447.587890625, -13566.390625, 135990.0, -187500.015625, -140581.921875, -187500.015625, -187500.015625, -0.11000000685453415, -0.6300000548362732, 0.7780000567436218, 192.0, 0.0, 0.0, 0.0, 0.0, 0.0, 0.0, 0.0, 0.0, 0.0, 1.613759394340428E9, 2021-02-19 16:29:54.340
197.0, -11512.9580078125, 22585.453125, -13442.16015625, 136120.671875, -187500.015625, -141309.203125, -187500.015625, -187500.015625, -0.11000000685453415, -0.6300000548362732, 0.7780000567436218, 192.0, 0.0, 0.0, 0.0, 0.0, 0.0, 0.0, 0.0, 0.0, 0.0, 1.6137593943604295E9, 2021-02-19 16:29:54.360
245.0, -11078.6865234375, 22268.169921875, -13752.357421875, 135806.28125, -187500.015625, -139273.015625, -187500.015625, -187500.015625, -0.11000000685453415, -0.6300000548362732, 0.7780000567436218, 192.0, 0.0, 0.0, 0.0, 0.0, 0.0, 0.0, 0.0, 0.0, 0.0, 1.613759394376435E9, 2021-02-19 16:29:54.376
217.0, -11451.669921875, 22444.4140625, -13571.12890625, 135971.984375, -187500.015625, -139746.078125, -187500.015625, -187500.015625, -0.11000000685453415, -0.6300000548362732, 0.7780000567436218, 192.0, 0.0, 0.0, 0.0, 0.0, 0.0, 0.0, 0.0, 0.0, 0.0, 1.6137593943795154E9, 2021-02-19 16:29:54.379
242.0, -11448.18359375, 22444.146484375, -13583.9814453125, 135964.78125, -187500.015625, -139598.3125, -187500.015625, -187500.015625, -0.11000000685453415, -0.6300000548362732, 0.7780000567436218, 192.0, 0.0, 0.0, 0.0, 0.0, 0.0, 0.0, 0.0, 0.0, 0.0, 1.613759394382502E9, 2021-02-19 16:29:54.382
228.0, -11084.05078125, 22299.955078125, -13710.0234375, 135845.625, -187500.015625, -139529.734375, -187500.015625, -187500.015625, -0.11000000685453415, -0.6300000548362732, 0.7780000567436218, 192.0, 0.0, 0.0, 0.0, 0.0, 0.0, 0.0, 0.0, 0.0, 0.0, 1.6137593943944645E9, 2021-02-19 16:29:54.394
212.0, -11124.0830078125, 22324.33984375, -13689.1240234375, 135861.40625, -187500.015625, -139158.796875, -187500.015625, -187500.015625, -0.11000000685453415, -0.6300000548362732, 0.7780000567436218, 192.0, 0.0, 0.0, 0.0, 0.0, 0.0, 0.0, 0.0, 0.0, 0.0, 1.6137593944255867E9, 2021-02-19 16:29:54.425
250.0, -11310.9658203125, 22380.443359375, -13638.810546875, 135905.328125, -187500.015625, -139236.125, -187500.015625, -187500.015625, -0.11000000685453415, -0.6300000548362732, 0.7780000567436218, 192.0, 0.0, 0.0, 0.0, 0.0, 0.0, 0.0, 0.0, 0.0, 0.0, 1.613759394428543E9, 2021-02-19 16:29:54.428
238.0, -11505.1796875, 22470.69921875, -13552.6220703125, 135998.609375, -187500.015625, -139816.5, -187500.015625, -187500.015625, -0.11000000685453415, -0.6300000548362732, 0.7780000567436218, 192.0, 0.0, 0.0, 0.0, 0.0, 0.0, 0.0, 0.0, 0.0, 0.0, 1.6137593944327185E9, 2021-02-19 16:29:54.432
235.0, -11427.060546875, 22551.970703125, -13470.345703125, 136087.34375, -187500.015625, -140861.78125, -187500.015625, -187500.015625, -0.11000000685453415, -0.6300000548362732, 0.7780000567436218, 192.0, 0.0, 0.0, 0.0, 0.0, 0.0, 0.0, 0.0, 0.0, 0.0, 1.613759394435603E9, 2021-02-19 16:29:54.435
253.0, -11077.94921875, 22290.634765625, -13721.310546875, 135829.4375, -187500.015625, -139699.65625, -187500.015625, -187500.015625, -0.11000000685453415, -0.6300000548362732, 0.7780000567436218, 192.0, 0.0, 0.0, 0.0, 0.0, 0.0, 0.0, 0.0, 0.0, 0.0, 1.6137593944385524E9, 2021-02-19 16:29:54.438
229.0, -11252.2255859375, 22338.154296875, -13676.607421875, 135871.125, -187500.015625, -139028.34375, -187500.015625, -187500.015625, -0.11000000685453415, -0.6300000548362732, 0.7780000567436218, 192.0, 0.0, 0.0, 0.0, 0.0, 0.0, 0.0, 0.0, 0.0, 0.0, 1.6137593944625905E9, 2021-02-19 16:29:54.462
233.0, -11188.634765625, 22316.0703125, -13702.490234375, 135848.28125, -187500.015625, -138835.671875, -187500.015625, -187500.015625, -0.11000000685453415, -0.6300000548362732, 0.7780000567436218, 192.0, 0.0, 0.0, 0.0, 0.0, 0.0, 0.0, 0.0, 0.0, 0.0, 1.6137593944655976E9, 2021-02-19 16:29:54.465
246.0, -11384.1005859375, 22384.064453125, -13642.185546875, 135909.265625, -187500.015625, -139411.734375, -187500.015625, -187500.015625, -0.11000000685453415, -0.6300000548362732, 0.7780000567436218, 192.0, 0.0, 0.0, 0.0, 0.0, 0.0, 0.0, 0.0, 0.0, 0.0, 1.613759394468721E9, 2021-02-19 16:29:54.468
251.0, -11545.234375, 22603.423828125, -13419.8076171875, 136127.1875, -187500.015625, -140565.171875, -187500.015625, -187500.015625, -0.11000000685453415, -0.6300000548362732, 0.7780000567436218, 192.0, 0.0, 0.0, 0.0, 0.0, 0.0, 0.0, 0.0, 0.0, 0.0, 1.6137593944797113E9, 2021-02-19 16:29:54.479
254.0, -11241.7646484375, 22316.78515625, -13699.31640625, 135843.921875, -187500.015625, -139109.984375, -187500.015625, -187500.015625, -0.1080000028014183, -0.6340000033378601, 0.7720000147819519, 192.0, 252.0, 160.0, 236.0, 48.0, 24.0, 32.0, 0.0, 0.0, 0.0, 1.6137593944905696E9, 2021-02-19 16:29:54.490
255.0, -11565.6416015625, 22501.388671875, -13521.240234375, 136021.671875, -187500.015625, -140245.03125, -187500.015625, -187500.015625, -0.1080000028014183, -0.6340000033378601, 0.7720000147819519, 192.0, 0.0, 0.0, 0.0, 0.0, 0.0, 0.0, 0.0, 0.0, 0.0, 1.6137593944968889E9, 2021-02-19 16:29:54.496
15.0, -11365.8837890625, 22414.126953125, -13613.9775390625, 135919.03125, -187500.015625, -139521.0625, -187500.015625, -187500.015625, -0.1080000028014183, -0.6340000033378601, 0.7720000147819519, 192.0, 0.0, 0.0, 0.0, 0.0, 0.0, 0.0, 0.0, 0.0, 0.0, 1.6137593945076065E9, 2021-02-19 16:29:54.507
5.0, -11145.1162109375, 22364.9765625, -13654.0546875, 135903.609375, -187500.015625, -140260.453125, -187500.015625, -187500.015625, -0.1080000028014183, -0.6340000033378601, 0.7720000147819519, 192.0, 0.0, 0.0, 0.0, 0.0, 0.0, 0.0, 0.0, 0.0, 0.0, 1.6137593945106072E9, 2021-02-19 16:29:54.510
13.0, -11240.736328125, 22435.763671875, -13588.83203125, 135959.171875, -187500.015625, -140802.59375, -187500.015625, -187500.015625, -0.1080000028014183, -0.6340000033378601, 0.7720000147819519, 192.0, 0.0, 0.0, 0.0, 0.0, 0.0, 0.0, 0.0, 0.0, 0.0, 1.613759394513833E9, 2021-02-19 16:29:54.513
3.0, -11521.7646484375, 22526.51171875, -13497.279296875, 136046.1875, -187500.015625, -140128.609375, -187500.015625, -187500.015625, -0.1080000028014183, -0.6340000033378601, 0.7720000147819519, 192.0, 0.0, 0.0, 0.0, 0.0, 0.0, 0.0, 0.0, 0.0, 0.0, 1.6137593945176024E9, 2021-02-19 16:29:54.517
6.0, -11124.4404296875, 22279.435546875, -13741.091796875, 135813.15625, -187500.015625, -139186.078125, -187500.015625, -187500.015625, -0.1080000028014183, -0.6340000033378601, 0.7720000147819519, 192.0, 0.0, 0.0, 0.0, 0.0, 0.0, 0.0, 0.0, 0.0, 0.0, 1.613759394521676E9, 2021-02-19 16:29:54.521
11.0, -11414.1640625, 22447.365234375, -13580.4052734375, 135958.0625, -187500.015625, -139739.0625, -187500.015625, -187500.015625, -0.1080000028014183, -0.6340000033378601, 0.7720000147819519, 192.0, 0.0, 0.0, 0.0, 0.0, 0.0, 0.0, 0.0, 0.0, 0.0, 1.6137593945267255E9, 2021-02-19 16:29:54.526
8.0, -11484.0576171875, 22564.734375, -13464.1982421875, 136086.46875, -187500.015625, -141137.0625, -187500.015625, -187500.015625, -0.11000000685453415, -0.6300000548362732, 0.7760000228881836, 192.0, 252.0, 144.0, 236.0, 80.0, 24.0, 64.0, 0.0, 0.0, 0.0, 1.6137593945296583E9, 2021-02-19 16:29:54.529
9.0, -11184.455078125, 22414.955078125, -13609.171875, 135943.859375, -187500.015625, -140579.171875, -187500.015625, -187500.015625, -0.11000000685453415, -0.6300000548362732, 0.7760000228881836, 192.0, 0.0, 0.0, 0.0, 0.0, 0.0, 0.0, 0.0, 0.0, 0.0, 1.6137593945337043E9, 2021-02-19 16:29:54.533
18.0, -11071.7353515625, 22277.603515625, -13741.2705078125, 135798.71875, -187500.015625, -139622.9375, -187500.015625, -187500.015625, -0.11000000685453415, -0.6300000548362732, 0.7760000228881836, 192.0, 0.0, 0.0, 0.0, 0.0, 0.0, 0.0, 0.0, 0.0, 0.0, 1.6137593945486925E9, 2021-02-19 16:29:54.548
28.0, -11498.5419921875, 22498.349609375, -13532.1923828125, 135997.28125, -187500.015625, -139938.59375, -187500.015625, -187500.015625, -0.11000000685453415, -0.6300000548362732, 0.7760000228881836, 192.0, 0.0, 0.0, 0.0, 0.0, 0.0, 0.0, 0.0, 0.0, 0.0, 1.6137593945636392E9, 2021-02-19 16:29:54.563
40.0, -11369.1474609375, 22347.474609375, -13681.435546875, 135850.296875, -187500.015625, -138856.390625, -187500.015625, -187500.015625, -0.11000000685453415, -0.6300000548362732, 0.7760000228881836, 192.0, 0.0, 0.0, 0.0, 0.0, 0.0, 0.0, 0.0, 0.0, 0.0, 1.6137593946378572E9, 2021-02-19 16:29:54.637
21.0, -11365.2802734375, 22509.30078125, -13516.255859375, 136025.296875, -187500.015625, -140978.375, -187500.015625, -187500.015625, -0.11000000685453415, -0.6300000548362732, 0.7760000228881836, 192.0, 0.0, 0.0, 0.0, 0.0, 0.0, 0.0, 0.0, 0.0, 0.0, 1.6137593947218993E9, 2021-02-19 16:29:54.721
38.0, -11306.361328125, 22362.271484375, -13664.828125, 135879.46875, -187500.015625, -140279.953125, -187500.015625, -187500.015625, -0.11000000685453415, -0.6300000548362732, 0.7760000228881836, 192.0, 0.0, 0.0, 0.0, 0.0, 0.0, 0.0, 0.0, 0.0, 0.0, 1.613759394780982E9, 2021-02-19 16:29:54.780
36.0, -11400.1494140625, 22406.1484375, -13624.6396484375, 135908.609375, -187500.015625, -139212.84375, -187500.015625, -187500.015625, -0.11000000685453415, -0.6300000548362732, 0.7760000228881836, 192.0, 0.0, 0.0, 0.0, 0.0, 0.0, 0.0, 0.0, 0.0, 0.0, 1.613759394805961E9, 2021-02-19 16:29:54.805
30.0, -11112.4150390625, 22442.55859375, -13582.3720703125, 135963.4375, -187500.015625, -140156.859375, -187500.015625, -187500.015625, -0.11000000685453415, -0.6300000548362732, 0.7760000228881836, 192.0, 0.0, 0.0, 0.0, 0.0, 0.0, 0.0, 0.0, 0.0, 0.0, 1.6137593948410745E9, 2021-02-19 16:29:54.841
94.0, -11238.568359375, 22332.9453125, -13701.9990234375, 135818.0, -187500.015625, -138900.3125, -187500.015625, -187500.015625, -0.11000000685453415, -0.6300000548362732, 0.7760000228881836, 192.0, 0.0, 0.0, 0.0, 0.0, 0.0, 0.0, 0.0, 0.0, 0.0, 1.6137593949152308E9, 2021-02-19 16:29:54.915
34.0, -11165.322265625, 22443.498046875, -13581.8359375, 135962.078125, -187500.015625, -140268.015625, -187500.015625, -187500.015625, -0.11000000685453415, -0.6300000548362732, 0.7760000228881836, 192.0, 0.0, 0.0, 0.0, 0.0, 0.0, 0.0, 0.0, 0.0, 0.0, 1.613759394946194E9, 2021-02-19 16:29:54.946
41.0, -11601.60546875, 22485.5859375, -13547.81640625, 135989.53125, -187500.015625, -140163.46875, -187500.015625, -187500.015625, -0.11000000685453415, -0.6300000548362732, 0.7760000228881836, 192.0, 0.0, 0.0, 0.0, 0.0, 0.0, 0.0, 0.0, 0.0, 0.0, 1.6137593949942248E9, 2021-02-19 16:29:54.994
91.0, -11570.08984375, 22545.578125, -13493.2333984375, 136033.78125, -187500.015625, -140292.953125, -187500.015625, -187500.015625, -0.11000000685453415, -0.6300000548362732, 0.7760000228881836, 192.0, 0.0, 0.0, 0.0, 0.0, 0.0, 0.0, 0.0, 0.0, 0.0, 1.6137593950302541E9, 2021-02-19 16:29:55.030
115.0, -11318.833984375, 22340.58984375, -13701.216796875, 135820.1875, -187500.015625, -139214.453125, -187500.015625, -187500.015625, -0.11000000685453415, -0.6300000548362732, 0.7760000228881836, 192.0, 0.0, 0.0, 0.0, 0.0, 0.0, 0.0, 0.0, 0.0, 0.0, 1.6137593950452807E9, 2021-02-19 16:29:55.045
44.0, -11288.4580078125, 22358.91796875, -13671.3095703125, 135862.296875, -187500.015625, -138580.65625, -187500.015625, -187500.015625, -0.11000000685453415, -0.6300000548362732, 0.7760000228881836, 192.0, 0.0, 0.0, 0.0, 0.0, 0.0, 0.0, 0.0, 0.0, 0.0, 1.61375939508031E9, 2021-02-19 16:29:55.080
113.0, -11297.0185546875, 22459.232421875, -13579.220703125, 135949.546875, -187500.015625, -140867.21875, -187500.015625, -187500.015625, -0.11000000685453415, -0.6300000548362732, 0.7760000228881836, 192.0, 0.0, 0.0, 0.0, 0.0, 0.0, 0.0, 0.0, 0.0, 0.0, 1.6137593950833125E9, 2021-02-19 16:29:55.083
57.0, -11479.9677734375, 22397.36328125, -13632.5517578125, 135893.078125, -187500.015625, -139021.96875, -187500.015625, -187500.015625, -0.1120000034570694, -0.628000020980835, 0.7760000228881836, 192.0, 252.0, 128.0, 236.0, 96.0, 24.0, 64.0, 0.0, 0.0, 0.0, 1.613759395127376E9, 2021-02-19 16:29:55.127
87.0, -11518.2783203125, 22610.12890625, -13428.8828125, 136097.671875, -187500.015625, -140470.1875, -187500.015625, -187500.015625, -0.1120000034570694, -0.628000020980835, 0.7760000228881836, 192.0, 0.0, 0.0, 0.0, 0.0, 0.0, 0.0, 0.0, 0.0, 0.0, 1.6137593951303957E9, 2021-02-19 16:29:55.130
111.0, -11375.8525390625, 22395.978515625, -13643.1689453125, 135875.265625, -187500.015625, -139445.328125, -187500.015625, -187500.015625, -0.1120000034570694, -0.628000020980835, 0.7760000228881836, 192.0, 0.0, 0.0, 0.0, 0.0, 0.0, 0.0, 0.0, 0.0, 0.0, 1.6137593951345432E9, 2021-02-19 16:29:55.134
162.0, -11618.5029296875, 22563.50390625, -13468.6240234375, 136024.9375, -187500.015625, -140448.71875, -187500.015625, -187500.015625, -0.1120000034570694, -0.628000020980835, 0.7760000228881836, 192.0, 0.0, 0.0, 0.0, 0.0, 0.0, 0.0, 0.0, 0.0, 0.0, 1.6137593951554914E9, 2021-02-19 16:29:55.155
160.0, -11121.84765625, 22270.740234375, -13752.111328125, 135743.6875, -187500.015625, -139199.9375, -187500.015625, -187500.015625, -0.1120000034570694, -0.628000020980835, 0.7760000228881836, 192.0, 0.0, 0.0, 0.0, 0.0, 0.0, 0.0, 0.0, 0.0, 0.0, 1.6137593951634994E9, 2021-02-19 16:29:55.163
129.0, -11515.5732421875, 22589.365234375, -13455.1904296875, 136066.703125, -187500.015625, -141164.53125, -187500.015625, -187500.015625, -0.1120000034570694, -0.628000020980835, 0.7760000228881836, 192.0, 0.0, 0.0, 0.0, 0.0, 0.0, 0.0, 0.0, 0.0, 0.0, 1.613759395193469E9, 2021-02-19 16:29:55.193
127.0, -11134.0068359375, 22261.80078125, -13775.2900390625, 135748.75, -187500.015625, -139286.65625, -187500.015625, -187500.015625, -0.1120000034570694, -0.628000020980835, 0.7760000228881836, 192.0, 0.0, 0.0, 0.0, 0.0, 0.0, 0.0, 0.0, 0.0, 0.0, 1.6137593952185452E9, 2021-02-19 16:29:55.218
158.0, -11591.994140625, 22531.921875, -13501.7275390625, 135997.953125, -187500.015625, -140772.203125, -187500.015625, -187500.015625, -0.1120000034570694, -0.628000020980835, 0.7760000228881836, 192.0, 0.0, 0.0, 0.0, 0.0, 0.0, 0.0, 0.0, 0.0, 0.0, 1.6137593952244844E9, 2021-02-19 16:29:55.224
125.0, -11452.966796875, 22546.583984375, -13497.6591796875, 136030.828125, -187500.015625, -141254.96875, -187500.015625, -187500.015625, -0.1120000034570694, -0.628000020980835, 0.7760000228881836, 192.0, 0.0, 0.0, 0.0, 0.0, 0.0, 0.0, 0.0, 0.0, 0.0, 1.613759395240552E9, 2021-02-19 16:29:55.240
183.0, -11580.103515625, 22560.77734375, -13483.5107421875, 136008.265625, -187500.015625, -141040.640625, -187500.015625, -187500.015625, -0.1120000034570694, -0.628000020980835, 0.7760000228881836, 192.0, 0.0, 0.0, 0.0, 0.0, 0.0, 0.0, 0.0, 0.0, 0.0, 1.6137593952435088E9, 2021-02-19 16:29:55.243
156.0, -11116.974609375, 22275.658203125, -13757.8115234375, 135747.1875, -187500.015625, -139176.3125, -187500.015625, -187500.015625, -0.1120000034570694, -0.628000020980835, 0.7760000228881836, 192.0, 0.0, 0.0, 0.0, 0.0, 0.0, 0.0, 0.0, 0.0, 0.0, 1.613759395246611E9, 2021-02-19 16:29:55.246
170.0, -11604.734375, 22481.115234375, -13560.9814453125, 135935.28125, -187500.015625, -140184.796875, -187500.015625, -187500.015625, -0.1120000034570694, -0.628000020980835, 0.7760000228881836, 192.0, 0.0, 0.0, 0.0, 0.0, 0.0, 0.0, 0.0, 0.0, 0.0, 1.6137593952555416E9, 2021-02-19 16:29:55.255
179.0, -11562.2216796875, 22563.705078125, -13479.5546875, 136022.34375, -187500.015625, -141180.125, -187500.015625, -187500.015625, -0.1120000034570694, -0.628000020980835, 0.7760000228881836, 192.0, 0.0, 0.0, 0.0, 0.0, 0.0, 0.0, 0.0, 0.0, 0.0, 1.6137593953136027E9, 2021-02-19 16:29:55.313
69.0, -11255.7119140625, 22330.7109375, -13698.646484375, 135827.09375, -187500.015625, -138182.65625, -187500.015625, -187500.015625, -0.1120000034570694, -0.628000020980835, 0.7760000228881836, 192.0, 0.0, 0.0, 0.0, 0.0, 0.0, 0.0, 0.0, 0.0, 0.0, 1.6137593953306406E9, 2021-02-19 16:29:55.330
192.0, -11438.03515625, 22501.58984375, -13545.8720703125, 135948.640625, -187500.015625, -141489.6875, -187500.015625, -187500.015625, -0.1120000034570694, -0.628000020980835, 0.7760000228881836, 192.0, 0.0, 0.0, 0.0, 0.0, 0.0, 0.0, 0.0, 0.0, 0.0, 1.6137593953456454E9, 2021-02-19 16:29:55.345
217.0, -11430.6591796875, 22534.177734375, -13519.228515625, 135959.359375, -187500.015625, -141936.078125, -187500.015625, -187500.015625, -0.1120000034570694, -0.628000020980835, 0.7760000228881836, 192.0, 0.0, 0.0, 0.0, 0.0, 0.0, 0.0, 0.0, 0.0, 0.0, 1.6137593954827664E9, 2021-02-19 16:29:55.482
132.0, -11417.8291015625, 22415.22265625, -13621.7333984375, 135887.5, -187500.015625, -139701.75, -187500.015625, -187500.015625, -0.1120000034570694, -0.628000020980835, 0.7760000228881836, 192.0, 0.0, 0.0, 0.0, 0.0, 0.0, 0.0, 0.0, 0.0, 0.0, 1.6137593955138252E9, 2021-02-19 16:29:55.513
190.0, -11285.7080078125, 22311.779296875, -13730.9892578125, 135756.421875, -187500.015625, -139601.1875, -187500.015625, -187500.015625, -0.1120000034570694, -0.628000020980835, 0.7760000228881836, 192.0, 0.0, 0.0, 0.0, 0.0, 0.0, 0.0, 0.0, 0.0, 0.0, 1.61375939557493E9, 2021-02-19 16:29:55.574
175.0, -11522.681640625, 22549.779296875, -13492.09375, 136013.40625, -187500.015625, -141131.28125, -187500.015625, -187500.015625, -0.11400000751018524, -0.6300000548362732, 0.7760000228881836, 192.0, 252.0, 112.0, 236.0, 80.0, 24.0, 64.0, 0.0, 0.0, 0.0, 1.6137593957593687E9, 2021-02-19 16:29:55.759
215.0, -11245.5419921875, 22333.951171875, -13715.5439453125, 135754.515625, -187500.015625, -140051.515625, -187500.015625, -187500.015625, -0.11400000751018524, -0.6300000548362732, 0.7760000228881836, 192.0, 0.0, 0.0, 0.0, 0.0, 0.0, 0.0, 0.0, 0.0, 0.0, 1.6137593957993374E9, 2021-02-19 16:29:55.799
40.0, -11514.388671875, 22537.017578125, -13523.1181640625, 135887.15625, -187500.015625, -141379.046875, -187500.015625, -187500.015625, -0.11400000751018524, -0.6300000548362732, 0.7760000228881836, 192.0, 0.0, 0.0, 0.0, 0.0, 0.0, 0.0, 0.0, 0.0, 0.0, 1.6137593958062663E9, 2021-02-19 16:29:55.806
117.0, -11115.25390625, 22245.572265625, -13810.5390625, 135525.078125, -187500.015625, -138454.875, -187500.015625, -187500.015625, -0.11400000751018524, -0.6300000548362732, 0.7760000228881836, 192.0, 0.0, 0.0, 0.0, 0.0, 0.0, 0.0, 0.0, 0.0, 0.0, 1.6137593958503244E9, 2021-02-19 16:29:55.850
118.0, -11449.099609375, 22397.765625, -13664.26953125, 135665.0, -187500.015625, -138719.890625, -187500.015625, -187500.015625, -0.11400000751018524, -0.6300000548362732, 0.7760000228881836, 192.0, 0.0, 0.0, 0.0, 0.0, 0.0, 0.0, 0.0, 0.0, 0.0, 1.6137593958803709E9, 2021-02-19 16:29:55.880
119.0, -11576.951171875, 22544.818359375, -13518.625, 135816.25, -187500.015625, -140018.203125, -187500.015625, -187500.015625, -0.11400000751018524, -0.6300000548362732, 0.7760000228881836, 192.0, 0.0, 0.0, 0.0, 0.0, 0.0, 0.0, 0.0, 0.0, 0.0, 1.6137593959164617E9, 2021-02-19 16:29:55.916
120.0, -11303.2548828125, 22430.82421875, -13624.9521484375, 135711.703125, -187500.015625, -139865.078125, -187500.015625, -187500.015625, -0.11400000751018524, -0.6300000548362732, 0.7760000228881836, 192.0, 0.0, 0.0, 0.0, 0.0, 0.0, 0.0, 0.0, 0.0, 0.0, 1.6137593959994512E9, 2021-02-19 16:29:55.999
121.0, -11098.8251953125, 22289.62890625, -13762.9970703125, 135571.421875, -187500.015625, -138531.5625, -187500.015625, -187500.015625, -0.11400000751018524, -0.6300000548362732, 0.7760000228881836, 192.0, 0.0, 0.0, 0.0, 0.0, 0.0, 0.0, 0.0, 0.0, 0.0, 1.6137593960054164E9, 2021-02-19 16:29:56.005
122.0, -11372.7685546875, 22349.0390625, -13710.828125, 135615.15625, -187500.015625, -138462.953125, -187500.015625, -187500.015625, -0.11400000751018524, -0.6300000548362732, 0.7760000228881836, 192.0, 0.0, 0.0, 0.0, 0.0, 0.0, 0.0, 0.0, 0.0, 0.0, 1.613759396031602E9, 2021-02-19 16:29:56.031
123.0, -11609.49609375, 22522.197265625, -13543.681640625, 135787.9375, -187500.015625, -139798.984375, -187500.015625, -187500.015625, -0.11400000751018524, -0.6300000548362732, 0.7760000228881836, 192.0, 0.0, 0.0, 0.0, 0.0, 0.0, 0.0, 0.0, 0.0, 0.0, 1.6137593960565417E9, 2021-02-19 16:29:56.056
124.0, -11363.134765625, 22468.375, -13595.26953125, 135743.8125, -187500.015625, -140013.671875, -187500.015625, -187500.015625, -0.11400000751018524, -0.6300000548362732, 0.7760000228881836, 192.0, 0.0, 0.0, 0.0, 0.0, 0.0, 0.0, 0.0, 0.0, 0.0, 1.613759396066464E9, 2021-02-19 16:29:56.066
125.0, -11115.65625, 22278.654296875, -13782.822265625, 135555.953125, -187500.015625, -138712.0, -187500.015625, -187500.015625, -0.11400000751018524, -0.6300000548362732, 0.7760000228881836, 192.0, 0.0, 0.0, 0.0, 0.0, 0.0, 0.0, 0.0, 0.0, 0.0, 1.6137593960916104E9, 2021-02-19 16:29:56.091
175.0, -11107.744140625, 22322.552734375, -13736.2861328125, 135579.53125, -187500.015625, -140182.515625, -187500.015625, -187500.015625, -0.11400000751018524, -0.6320000290870667, 0.7700000405311584, 192.0, 252.0, 112.0, 236.0, 64.0, 24.0, 16.0, 0.0, 0.0, 0.0, 1.61375939609757E9, 2021-02-19 16:29:56.097
127.0, -11600.15234375, 22541.130859375, -13526.7392578125, 135804.28125, -187500.015625, -139616.765625, -187500.015625, -187500.015625, -0.11400000751018524, -0.6320000290870667, 0.7700000405311584, 192.0, 0.0, 0.0, 0.0, 0.0, 0.0, 0.0, 0.0, 0.0, 0.0, 1.6137593961015382E9, 2021-02-19 16:29:56.101
128.0, -11394.94140625, 22539.4765625, -13522.134765625, 135812.75, -187500.015625, -140188.53125, -187500.015625, -187500.015625, -0.11400000751018524, -0.6320000290870667, 0.7700000405311584, 192.0, 0.0, 0.0, 0.0, 0.0, 0.0, 0.0, 0.0, 0.0, 0.0, 1.613759396104705E9, 2021-02-19 16:29:56.104
173.0, -11604.0869140625, 22545.48828125, -13519.5859375, 135785.75, -187500.015625, -141028.640625, -187500.015625, -187500.015625, -0.11400000751018524, -0.6320000290870667, 0.7700000405311584, 192.0, 0.0, 0.0, 0.0, 0.0, 0.0, 0.0, 0.0, 0.0, 0.0, 1.613759396107523E9, 2021-02-19 16:29:56.107
171.0, -11112.19140625, 22275.033203125, -13781.8837890625, 135529.265625, -187500.015625, -139850.90625, -187500.015625, -187500.015625, -0.11400000751018524, -0.6320000290870667, 0.7700000405311584, 192.0, 0.0, 0.0, 0.0, 0.0, 0.0, 0.0, 0.0, 0.0, 0.0, 1.6137593961115396E9, 2021-02-19 16:29:56.111
131.0, -11573.8896484375, 22540.884765625, -13519.2060546875, 135806.765625, -187500.015625, -139464.109375, -187500.015625, -187500.015625, -0.11400000751018524, -0.6320000290870667, 0.7700000405311584, 192.0, 0.0, 0.0, 0.0, 0.0, 0.0, 0.0, 0.0, 0.0, 0.0, 1.6137593961145484E9, 2021-02-19 16:29:56.114
132.0, -11438.2138671875, 22584.447265625, -13475.732421875, 135860.375, -187500.015625, -140350.203125, -187500.015625, -187500.015625, -0.11400000751018524, -0.6320000290870667, 0.7700000405311584, 192.0, 0.0, 0.0, 0.0, 0.0, 0.0, 0.0, 0.0, 0.0, 0.0, 1.6137593961175475E9, 2021-02-19 16:29:56.117
133.0, -11140.8017578125, 22368.037109375, -13687.3583984375, 135652.75, -187500.015625, -139357.125, -187500.015625, -187500.015625, -0.11400000751018524, -0.6320000290870667, 0.7700000405311584, 192.0, 0.0, 0.0, 0.0, 0.0, 0.0, 0.0, 0.0, 0.0, 0.0, 1.6137593961216242E9, 2021-02-19 16:29:56.121
169.0, -11574.11328125, 22558.474609375, -13511.4501953125, 135798.75, -187500.015625, -141145.25, -187500.015625, -187500.015625, -0.11400000751018524, -0.6320000290870667, 0.7700000405311584, 192.0, 0.0, 0.0, 0.0, 0.0, 0.0, 0.0, 0.0, 0.0, 0.0, 1.6137593961246216E9, 2021-02-19 16:29:56.124
135.0, -11569.396484375, 22438.4453125, -13626.3828125, 135704.640625, -187500.015625, -139179.703125, -187500.015625, -187500.015625, -0.11400000751018524, -0.6320000290870667, 0.7700000405311584, 192.0, 0.0, 0.0, 0.0, 0.0, 0.0, 0.0, 0.0, 0.0, 0.0, 1.613759396133652E9, 2021-02-19 16:29:56.133
167.0, -11111.9677734375, 22277.9609375, -13789.193359375, 135529.640625, -187500.015625, -139581.65625, -187500.015625, -187500.015625, -0.11400000751018524, -0.6320000290870667, 0.7700000405311584, 192.0, 0.0, 0.0, 0.0, 0.0, 0.0, 0.0, 0.0, 0.0, 0.0, 1.6137593961395888E9, 2021-02-19 16:29:56.139
137.0, -11202.1572265625, 22403.7109375, -13655.3955078125, 135687.0625, -187500.015625, -139645.875, -187500.015625, -187500.015625, -0.11400000751018524, -0.6320000290870667, 0.7700000405311584, 192.0, 0.0, 0.0, 0.0, 0.0, 0.0, 0.0, 0.0, 0.0, 0.0, 1.613759396146695E9, 2021-02-19 16:29:56.146
138.0, -11123.4345703125, 22330.77734375, -13730.0283203125, 135606.15625, -187500.015625, -138595.140625, -187500.015625, -187500.015625, -0.11400000751018524, -0.6320000290870667, 0.7700000405311584, 192.0, 0.0, 0.0, 0.0, 0.0, 0.0, 0.0, 0.0, 0.0, 0.0, 1.61375939614966E9, 2021-02-19 16:29:56.149
158.0, -11163.5556640625, 22371.48046875, -13682.44140625, 135642.25, -187500.015625, -140135.6875, -187500.015625, -187500.015625, -0.11400000751018524, -0.6320000290870667, 0.7700000405311584, 192.0, 0.0, 0.0, 0.0, 0.0, 0.0, 0.0, 0.0, 0.0, 0.0, 1.6137593961525927E9, 2021-02-19 16:29:56.152
165.0, -11541.7919921875, 22582.189453125, -13488.115234375, 135832.34375, -187500.015625, -141217.78125, -187500.015625, -187500.015625, -0.11600000411272049, -0.6320000290870667, 0.7780000567436218, 192.0, 252.0, 96.0, 236.0, 64.0, 24.0, 80.0, 0.0, 0.0, 0.0, 1.6137593961686888E9, 2021-02-19 16:29:56.168
154.0, -11169.30078125, 22293.3828125, -13764.5390625, 135562.515625, -187500.015625, -139894.46875, -187500.015625, -187500.015625, -0.11600000411272049, -0.6320000290870667, 0.7780000567436218, 192.0, 0.0, 0.0, 0.0, 0.0, 0.0, 0.0, 0.0, 0.0, 0.0, 1.6137593961726162E9, 2021-02-19 16:29:56.172
187.0, -11204.68359375, 22444.146484375, -13612.078125, 135692.359375, -187500.015625, -141200.59375, -187500.015625, -187500.015625, -0.11600000411272049, -0.6320000290870667, 0.7780000567436218, 192.0, 0.0, 0.0, 0.0, 0.0, 0.0, 0.0, 0.0, 0.0, 0.0, 1.6137593961756098E9, 2021-02-19 16:29:56.175
143.0, -11433.6318359375, 22389.62890625, -13676.853515625, 135646.3125, -187500.015625, -139164.859375, -187500.015625, -187500.015625, -0.11600000411272049, -0.6320000290870667, 0.7780000567436218, 192.0, 0.0, 0.0, 0.0, 0.0, 0.0, 0.0, 0.0, 0.0, 0.0, 1.613759396213672E9, 2021-02-19 16:29:56.213
161.0, -11523.552734375, 22546.494140625, -13512.791015625, 135808.125, -187500.015625, -141194.84375, -187500.015625, -187500.015625, -0.11600000411272049, -0.6320000290870667, 0.7780000567436218, 192.0, 0.0, 0.0, 0.0, 0.0, 0.0, 0.0, 0.0, 0.0, 0.0, 1.6137593962216358E9, 2021-02-19 16:29:56.221
179.0, -11133.1572265625, 22317.0546875, -13750.390625, 135570.71875, -187500.015625, -140500.78125, -187500.015625, -187500.015625, -0.11600000411272049, -0.6320000290870667, 0.7780000567436218, 192.0, 0.0, 0.0, 0.0, 0.0, 0.0, 0.0, 0.0, 0.0, 0.0, 1.613759396224654E9, 2021-02-19 16:29:56.224
201.0, -11307.724609375, 22292.689453125, -13762.125, 135520.875, -187500.015625, -139900.328125, -187500.015625, -187500.015625, -0.11600000411272049, -0.6320000290870667, 0.7780000567436218, 192.0, 0.0, 0.0, 0.0, 0.0, 0.0, 0.0, 0.0, 0.0, 0.0, 1.6137593962288623E9, 2021-02-19 16:29:56.228
192.0, -11077.0771484375, 22288.869140625, -13771.5576171875, 135531.34375, -187500.015625, -140156.875, -187500.015625, -187500.015625, -0.11600000411272049, -0.6320000290870667, 0.7780000567436218, 192.0, 0.0, 0.0, 0.0, 0.0, 0.0, 0.0, 0.0, 0.0, 0.0, 1.6137593962317443E9, 2021-02-19 16:29:56.231
204.0, -11176.3193359375, 22323.3125, -13732.3974609375, 135560.515625, -187500.015625, -140599.890625, -187500.015625, -187500.015625, -0.11600000411272049, -0.6320000290870667, 0.7780000567436218, 192.0, 0.0, 0.0, 0.0, 0.0, 0.0, 0.0, 0.0, 0.0, 0.0, 1.6137593962347548E9, 2021-02-19 16:29:56.234
199.0, -11426.14453125, 22441.462890625, -13618.068359375, 135681.75, -187500.015625, -141784.625, -187500.015625, -187500.015625, -0.11600000411272049, -0.6320000290870667, 0.7780000567436218, 192.0, 0.0, 0.0, 0.0, 0.0, 0.0, 0.0, 0.0, 0.0, 0.0, 1.6137593962376785E9, 2021-02-19 16:29:56.237
188.0, -11099.49609375, 22281.58203125, -13775.06640625, 135524.96875, -187500.015625, -139964.3125, -187500.015625, -187500.015625, -0.11600000411272049, -0.6320000290870667, 0.7780000567436218, 192.0, 0.0, 0.0, 0.0, 0.0, 0.0, 0.0, 0.0, 0.0, 0.0, 1.6137593962416804E9, 2021-02-19 16:29:56.241
193.0, -11393.130859375, 22371.234375, -13695.4716796875, 135598.734375, -187500.015625, -140221.34375, -187500.015625, -187500.015625, -0.11600000411272049, -0.6320000290870667, 0.7780000567436218, 192.0, 0.0, 0.0, 0.0, 0.0, 0.0, 0.0, 0.0, 0.0, 0.0, 1.6137593962446926E9, 2021-02-19 16:29:56.244
196.0, -11085.3916015625, 22307.62109375, -13748.9375, 135551.953125, -187500.015625, -140368.90625, -187500.015625, -187500.015625, -0.11600000411272049, -0.6320000290870667, 0.7780000567436218, 192.0, 0.0, 0.0, 0.0, 0.0, 0.0, 0.0, 0.0, 0.0, 0.0, 1.6137593962498927E9, 2021-02-19 16:29:56.249
202.0, -11613.2734375, 22504.138671875, -13555.7958984375, 135726.09375, -187500.015625, -141044.515625, -187500.015625, -187500.015625, -0.11600000411272049, -0.6320000290870667, 0.7780000567436218, 192.0, 0.0, 0.0, 0.0, 0.0, 0.0, 0.0, 0.0, 0.0, 0.0, 1.6137593962597609E9, 2021-02-19 16:29:56.259
205.0, -11222.5419921875, 22271.232421875, -13785.4375, 135498.296875, -187500.015625, -139677.71875, -187500.015625, -187500.015625, -0.11400000751018524, -0.6320000290870667, 0.7680000066757202, 192.0, 252.0, 112.0, 236.0, 64.0, 24.0, 0.0, 0.0, 0.0, 0.0, 1.6137593962638824E9, 2021-02-19 16:29:56.263
206.0, -11578.29296875, 22493.69921875, -13570.90625, 135710.75, -187500.015625, -140654.0625, -187500.015625, -187500.015625, -0.11400000751018524, -0.6320000290870667, 0.7680000066757202, 192.0, 0.0, 0.0, 0.0, 0.0, 0.0, 0.0, 0.0, 0.0, 0.0, 1.613759396266868E9, 2021-02-19 16:29:56.266
207.0, -11508.6220703125, 22530.625, -13533.466796875, 135754.40625, -187500.015625, -141738.515625, -187500.015625, -187500.015625, -0.11400000751018524, -0.6320000290870667, 0.7680000066757202, 192.0, 0.0, 0.0, 0.0, 0.0, 0.0, 0.0, 0.0, 0.0, 0.0, 1.6137593962697437E9, 2021-02-19 16:29:56.269
208.0, -11197.4189453125, 22387.662109375, -13670.125, 135614.203125, -187500.015625, -140962.359375, -187500.015625, -187500.015625, -0.11400000751018524, -0.6320000290870667, 0.7680000066757202, 192.0, 0.0, 0.0, 0.0, 0.0, 0.0, 0.0, 0.0, 0.0, 0.0, 1.6137593962727356E9, 2021-02-19 16:29:56.272
209.0, -11143.6181640625, 22297.607421875, -13761.365234375, 135517.890625, -187500.015625, -139791.296875, -187500.015625, -187500.015625, -0.11400000751018524, -0.6320000290870667, 0.7680000066757202, 192.0, 0.0, 0.0, 0.0, 0.0, 0.0, 0.0, 0.0, 0.0, 0.0, 1.6137593962907891E9, 2021-02-19 16:29:56.290
210.0, -11510.298828125, 22458.5625, -13606.9140625, 135666.96875, -187500.015625, -140468.140625, -187500.015625, -187500.015625, -0.11400000751018524, -0.6320000290870667, 0.7680000066757202, 192.0, 0.0, 0.0, 0.0, 0.0, 0.0, 0.0, 0.0, 0.0, 0.0, 1.6137593962948768E9, 2021-02-19 16:29:56.294
233.0, -11222.498046875, 22354.224609375, -13706.2900390625, 135560.734375, -187500.015625, -140293.875, -187500.015625, -187500.015625, -0.11400000751018524, -0.6320000290870667, 0.7680000066757202, 192.0, 0.0, 0.0, 0.0, 0.0, 0.0, 0.0, 0.0, 0.0, 0.0, 1.613759396309888E9, 2021-02-19 16:29:56.309
212.0, -11253.25390625, 22372.865234375, -13688.296875, 135596.9375, -187500.015625, -141081.484375, -187500.015625, -187500.015625, -0.11400000751018524, -0.6320000290870667, 0.7680000066757202, 192.0, 0.0, 0.0, 0.0, 0.0, 0.0, 0.0, 0.0, 0.0, 0.0, 1.6137593963127813E9, 2021-02-19 16:29:56.312
222.0, -11323.8623046875, 22338.33203125, -13725.8701171875, 135540.375, -187500.015625, -139559.75, -187500.015625, -187500.015625, -0.11400000751018524, -0.6320000290870667, 0.7680000066757202, 192.0, 0.0, 0.0, 0.0, 0.0, 0.0, 0.0, 0.0, 0.0, 0.0, 1.613759396335806E9, 2021-02-19 16:29:56.335
231.0, -11594.2744140625, 22456.73046875, -13607.31640625, 135646.734375, -187500.015625, -140051.015625, -187500.015625, -187500.015625, -0.11400000751018524, -0.6320000290870667, 0.7680000066757202, 192.0, 0.0, 0.0, 0.0, 0.0, 0.0, 0.0, 0.0, 0.0, 0.0, 1.6137593963409655E9, 2021-02-19 16:29:56.340
215.0, -11563.853515625, 22577.630859375, -13492.7861328125, 135785.484375, -187500.015625, -141424.0, -187500.015625, -187500.015625, -0.11400000751018524, -0.6320000290870667, 0.7680000066757202, 192.0, 0.0, 0.0, 0.0, 0.0, 0.0, 0.0, 0.0, 0.0, 0.0, 1.613759396344813E9, 2021-02-19 16:29:56.344
229.0, -11226.341796875, 22272.349609375, -13785.236328125, 135481.203125, -187500.015625, -140021.625, -187500.015625, -187500.015625, -0.11400000751018524, -0.6320000290870667, 0.7680000066757202, 192.0, 0.0, 0.0, 0.0, 0.0, 0.0, 0.0, 0.0, 0.0, 0.0, 1.6137593963478715E9, 2021-02-19 16:29:56.347
217.0, -11097.037109375, 22280.955078125, -13780.453125, 135499.984375, -187500.015625, -139856.96875, -187500.015625, -187500.015625, -0.11400000751018524, -0.6320000290870667, 0.7680000066757202, 192.0, 0.0, 0.0, 0.0, 0.0, 0.0, 0.0, 0.0, 0.0, 0.0, 1.613759396371908E9, 2021-02-19 16:29:56.371
220.0, -11341.5205078125, 22447.095703125, -13617.2412109375, 135663.015625, -187500.015625, -141268.25, -187500.015625, -187500.015625, -0.11400000751018524, -0.6320000290870667, 0.7680000066757202, 192.0, 0.0, 0.0, 0.0, 0.0, 0.0, 0.0, 0.0, 0.0, 0.0, 1.6137593963758545E9, 2021-02-19 16:29:56.375
227.0, -11604.7119140625, 22478.12109375, -13588.1171875, 135674.609375, -187500.015625, -140287.953125, -187500.015625, -187500.015625, -0.11400000751018524, -0.6320000290870667, 0.7680000066757202, 192.0, 0.0, 0.0, 0.0, 0.0, 0.0, 0.0, 0.0, 0.0, 0.0, 1.6137593963959107E9, 2021-02-19 16:29:56.395
224.0, -11414.275390625, 22487.462890625, -13576.5166015625, 135698.078125, -187500.015625, -141268.515625, -187500.015625, -187500.015625, -0.11600000411272049, -0.6360000371932983, 0.7720000147819519, 192.0, 252.0, 96.0, 236.0, 32.0, 24.0, 32.0, 0.0, 0.0, 0.0, 1.6137593964009151E9, 2021-02-19 16:29:56.400
225.0, -11153.498046875, 22300.982421875, -13758.8173828125, 135514.6875, -187500.015625, -140024.75, -187500.015625, -187500.015625, -0.11600000411272049, -0.6360000371932983, 0.7720000147819519, 192.0, 0.0, 0.0, 0.0, 0.0, 0.0, 0.0, 0.0, 0.0, 0.0, 1.6137593964050002E9, 2021-02-19 16:29:56.405
234.0, -11167.1767578125, 22267.6796875, -13793.7080078125, 135467.4375, -187500.015625, -139096.671875, -187500.015625, -187500.015625, -0.1080000028014183, -0.6340000033378601, 0.7800000309944153, 192.0, 252.0, 160.0, 236.0, 48.0, 24.0, 96.0, 0.0, 0.0, 0.0, 1.6137593964109828E9, 2021-02-19 16:29:56.410
235.0, -11514.9921875, 22433.751953125, -13634.5185546875, 135621.46875, -187500.015625, -139687.09375, -187500.015625, -187500.015625, -0.1080000028014183, -0.6340000033378601, 0.7800000309944153, 192.0, 0.0, 0.0, 0.0, 0.0, 0.0, 0.0, 0.0, 0.0, 0.0, 1.61375939645493E9, 2021-02-19 16:29:56.454
236.0, -11565.708984375, 22563.52734375, -13506.9580078125, 135755.390625, -187500.015625, -140913.140625, -187500.015625, -187500.015625, -0.1080000028014183, -0.6340000033378601, 0.7800000309944153, 192.0, 0.0, 0.0, 0.0, 0.0, 0.0, 0.0, 0.0, 0.0, 0.0, 1.6137593964669733E9, 2021-02-19 16:29:56.466
237.0, -11252.806640625, 22421.548828125, -13643.4150390625, 135623.046875, -187500.015625, -140450.90625, -187500.015625, -187500.015625, -0.1080000028014183, -0.6340000033378601, 0.7800000309944153, 192.0, 0.0, 0.0, 0.0, 0.0, 0.0, 0.0, 0.0, 0.0, 0.0, 1.6137593964699807E9, 2021-02-19 16:29:56.469
238.0, -11123.0546875, 22274.65234375, -13788.4111328125, 135471.890625, -187500.015625, -139128.421875, -187500.015625, -187500.015625, -0.1080000028014183, -0.6340000033378601, 0.7800000309944153, 192.0, 0.0, 0.0, 0.0, 0.0, 0.0, 0.0, 0.0, 0.0, 0.0, 1.6137593964921598E9, 2021-02-19 16:29:56.492
239.0, -11446.1494140625, 22408.830078125, -13658.279296875, 135592.8125, -187500.015625, -139390.125, -187500.015625, -187500.015625, -0.1080000028014183, -0.6340000033378601, 0.7800000309944153, 192.0, 0.0, 0.0, 0.0, 0.0, 0.0, 0.0, 0.0, 0.0, 0.0, 1.6137593964959848E9, 2021-02-19 16:29:56.495
240.0, -11588.8876953125, 22562.140625, -13505.4150390625, 135749.453125, -187500.015625, -140717.765625, -187500.015625, -187500.015625, -0.1080000028014183, -0.6340000033378601, 0.7800000309944153, 192.0, 0.0, 0.0, 0.0, 0.0, 0.0, 0.0, 0.0, 0.0, 0.0, 1.6137593964991632E9, 2021-02-19 16:29:56.499
241.0, -11310.294921875, 22442.40234375, -13619.38671875, 135641.125, -187500.015625, -140584.6875, -187500.015625, -187500.015625, -0.1080000028014183, -0.6340000033378601, 0.7800000309944153, 192.0, 0.0, 0.0, 0.0, 0.0, 0.0, 0.0, 0.0, 0.0, 0.0, 1.6137593965020263E9, 2021-02-19 16:29:56.502
242.0, -11127.525390625, 22234.888671875, -13823.927734375, 135434.78125, -187500.015625, -139213.359375, -187500.015625, -187500.015625, -0.1080000028014183, -0.6340000033378601, 0.7800000309944153, 192.0, 0.0, 0.0, 0.0, 0.0, 0.0, 0.0, 0.0, 0.0, 0.0, 1.613759396506118E9, 2021-02-19 16:29:56.506
243.0, -11407.927734375, 22332.07421875, -13732.330078125, 135516.625, -187500.015625, -139113.65625, -187500.015625, -187500.015625, -0.1080000028014183, -0.6340000033378601, 0.7800000309944153, 192.0, 0.0, 0.0, 0.0, 0.0, 0.0, 0.0, 0.0, 0.0, 0.0, 1.6137593965150402E9, 2021-02-19 16:29:56.515
252.0, -11617.005859375, 22478.5, -13595.0009765625, 135647.171875, -187500.015625, -139715.5625, -187500.015625, -187500.015625, -0.1080000028014183, -0.6340000033378601, 0.7800000309944153, 192.0, 0.0, 0.0, 0.0, 0.0, 0.0, 0.0, 0.0, 0.0, 0.0, 1.6137593965190344E9, 2021-02-19 16:29:56.519
