%OpenBCI Raw EEG Data
%Number of channels = 8
%Sample Rate = 250 Hz
%Board = OpenBCI_GUI$BoardCytonSerial
Sample Index, EXG Channel 0, EXG Channel 1, EXG Channel 2, EXG Channel 3, EXG Channel 4, EXG Channel 5, EXG Channel 6, EXG Channel 7, Accel Channel 0, Accel Channel 1, Accel Channel 2, Other, Other, Other, Other, Other, Other, Other, Analog Channel 0, Analog Channel 1, Analog Channel 2, Timestamp, Timestamp (Formatted)
179.0, -11245.2294921875, 22472.62109375, -13708.3916015625, 135852.640625, -187500.015625, -139369.421875, -187500.015625, -187500.015625, 0.0, 0.0, 0.0, 192.0, 0.0, 0.0, 0.0, 0.0, 0.0, 0.0, 0.0, 0.0, 0.0, 1.6137594429618733E9, 2021-02-19 16:30:42.961
226.0, -11087.0009765625, 22380.912109375, -13788.1201171875, 135827.171875, -187500.015625, -138142.453125, -187500.015625, -187500.015625, 0.0, 0.0, 0.0, 192.0, 0.0, 0.0, 0.0, 0.0, 0.0, 0.0, 0.0, 0.0, 0.0, 1.6137594429618783E9, 2021-02-19 16:30:42.961
30.0, -11547.4921875, 22661.181640625, -13504.4091796875, 136195.28125, -187500.015625, -139759.015625, -187500.015625, -187500.015625, 0.0, 0.0, 0.0, 192.0, 0.0, 0.0, 0.0, 0.0, 0.0, 0.0, 0.0, 0.0, 0.0, 1.6137594429618833E9, 2021-02-19 16:30:42.961
87.0, -11062.3251953125, 22437.373046875, -13716.3935546875, 136054.328125, -187500.015625, -137088.03125, -187500.015625, -187500.015625, -0.12000000476837158, -0.6260000467300415, 0.7700000405311584, 192.0, 252.0, 64.0, 236.0, 112.0, 24.0, 16.0, 0.0, 0.0, 0.0, 1.613759442961888E9, 2021-02-19 16:30:42.961
88.0, -11426.3232421875, 22632.212890625, -13529.353515625, 136239.625, -187500.015625, -137856.5625, -187500.015625, -187500.015625, -0.12000000476837158, -0.6260000467300415, 0.7700000405311584, 192.0, 0.0, 0.0, 0.0, 0.0, 0.0, 0.0, 0.0, 0.0, 0.0, 1.613759442961892E9, 2021-02-19 16:30:42.961
89.0, -11436.6943359375, 22700.7890625, -13460.0859375, 136318.28125, -187500.015625, -138986.65625, -187500.015625, -187500.015625, -0.12000000476837158, -0.6260000467300415, 0.7700000405311584, 192.0, 0.0, 0.0, 0.0, 0.0, 0.0, 0.0, 0.0, 0.0, 0.0, 1.613759442961897E9, 2021-02-19 16:30:42.961
90.0, -11134.744140625, 22541.419921875, -13617.2412109375, 136168.078125, -187500.015625, -138359.234375, -187500.015625, -187500.015625, -0.12000000476837158, -0.6260000467300415, 0.7700000405311584, 192.0, 0.0, 0.0, 0.0, 0.0, 0.0, 0.0, 0.0, 0.0, 0.0, 1.6137594429619012E9, 2021-02-19 16:30:42.961
91.0, -11030.294921875, 22442.4921875, -13717.2431640625, 136064.515625, -187500.015625, -137100.765625, -187500.015625, -187500.015625, -0.12000000476837158, -0.6260000467300415, 0.7700000405311584, 192.0, 0.0, 0.0, 0.0, 0.0, 0.0, 0.0, 0.0, 0.0, 0.0, 1.613759442961906E9, 2021-02-19 16:30:42.961
0.0, 0.0, 0.0, 0.0, 0.0, 0.0, 0.0, 0.0, 0.0, -0.12000000476837158, -0.6260000467300415, 0.7700000405311584, 192.0, 0.0, 0.0, 0.0, 0.0, 0.0, 0.0, 0.0, 0.0, 0.0, 1.6137594431891074E9, 2021-02-19 16:30:43.189
1.0, -12187.19921875, 18037.58984375, -14994.0185546875, 134151.609375, -187500.015625, -123277.4453125, -187500.015625, -187500.015625, -0.12400000542402267, -0.6340000033378601, 0.7680000066757202, 192.0, 252.0, 32.0, 236.0, 48.0, 24.0, 0.0, 0.0, 0.0, 0.0, 1.6137594431942303E9, 2021-02-19 16:30:43.194
2.0, -12375.6689453125, 18149.884765625, -14887.625, 134251.453125, -187500.015625, -120979.0390625, -187500.015625, -187500.015625, -0.12400000542402267, -0.6340000033378601, 0.7680000066757202, 192.0, 0.0, 0.0, 0.0, 0.0, 0.0, 0.0, 0.0, 0.0, 0.0, 1.613759443197204E9, 2021-02-19 16:30:43.197
3.0, -12261.1611328125, 18218.28125, -14818.736328125, 134328.296875, -187500.015625, -118726.3359375, -187500.015625, -187500.015625, -0.12400000542402267, -0.6340000033378601, 0.7680000066757202, 192.0, 0.0, 0.0, 0.0, 0.0, 0.0, 0.0, 0.0, 0.0, 0.0, 1.6137594432021053E9, 2021-02-19 16:30:43.202
4.0, -12003.5791015625, 18016.712890625, -15017.0185546875, 134135.625, -187500.015625, -114609.28125, -187500.015625, -187500.015625, -0.12400000542402267, -0.6340000033378601, 0.7680000066757202, 192.0, 0.0, 0.0, 0.0, 0.0, 0.0, 0.0, 0.0, 0.0, 0.0, 1.6137594432621827E9, 2021-02-19 16:30:43.262
5.0, -11983.931640625, 17837.4296875, -15196.1904296875, 133954.09375, -187500.015625, -110104.2890625, -187500.015625, -187500.015625, -0.12400000542402267, -0.6340000033378601, 0.7680000066757202, 192.0, 0.0, 0.0, 0.0, 0.0, 0.0, 0.0, 0.0, 0.0, 0.0, 1.6137594434032824E9, 2021-02-19 16:30:43.403
6.0, -12218.8486328125, 18001.22265625, -15037.42578125, 134105.671875, -187500.015625, -107406.09375, -187500.015625, -187500.015625, -0.12400000542402267, -0.6340000033378601, 0.7680000066757202, 192.0, 0.0, 0.0, 0.0, 0.0, 0.0, 0.0, 0.0, 0.0, 0.0, 1.6137594434084363E9, 2021-02-19 16:30:43.408
7.0, -12208.8349609375, 18072.14453125, -14965.654296875, 134180.484375, -187500.015625, -105226.328125, -187500.015625, -187500.015625, -0.12400000542402267, -0.6340000033378601, 0.7680000066757202, 192.0, 0.0, 0.0, 0.0, 0.0, 0.0, 0.0, 0.0, 0.0, 0.0, 1.6137594434152937E9, 2021-02-19 16:30:43.415
8.0, -11973.650390625, 17971.94140625, -15058.9951171875, 134083.9375, -187500.015625, -101379.28125, -187500.015625, -187500.015625, -0.1300000101327896, -0.6380000114440918, 0.7640000581741333, 192.0, 251.0, 240.0, 236.0, 16.0, 23.0, 224.0, 0.0, 0.0, 0.0, 1.613759443571483E9, 2021-02-19 16:30:43.571
69.0, -9329.439453125, 18550.001953125, -14502.6162109375, 134610.21875, -187500.015625, 30308.740234375, -187500.015625, -187500.015625, -0.1300000101327896, -0.6380000114440918, 0.7640000581741333, 192.0, 0.0, 0.0, 0.0, 0.0, 0.0, 0.0, 0.0, 0.0, 0.0, 1.61375944363153E9, 2021-02-19 16:30:43.631
10.0, -12081.810546875, 17874.220703125, -15157.0078125, 133971.90625, -187500.015625, -93742.296875, -187500.015625, -187500.015625, -0.1300000101327896, -0.6380000114440918, 0.7640000581741333, 192.0, 0.0, 0.0, 0.0, 0.0, 0.0, 0.0, 0.0, 0.0, 0.0, 1.6137594436476123E9, 2021-02-19 16:30:43.647
11.0, -12145.6025390625, 18013.896484375, -15016.5947265625, 134115.796875, -187500.015625, -91702.0078125, -187500.015625, -187500.015625, -0.1300000101327896, -0.6380000114440918, 0.7640000581741333, 192.0, 0.0, 0.0, 0.0, 0.0, 0.0, 0.0, 0.0, 0.0, 0.0, 1.613759443735692E9, 2021-02-19 16:30:43.735
104.0, -7991.7763671875, 18277.37890625, -14777.9228515625, 134342.5625, -187500.015625, 92476.3828125, -187500.015625, -187500.015625, -0.1300000101327896, -0.6380000114440918, 0.7640000581741333, 192.0, 0.0, 0.0, 0.0, 0.0, 0.0, 0.0, 0.0, 0.0, 0.0, 1.6137594437947764E9, 2021-02-19 16:30:43.794
13.0, -11811.4658203125, 17743.73046875, -15285.44140625, 133855.96875, -187500.015625, -83463.3125, -187500.015625, -187500.015625, -0.1300000101327896, -0.6380000114440918, 0.7640000581741333, 192.0, 0.0, 0.0, 0.0, 0.0, 0.0, 0.0, 0.0, 0.0, 0.0, 1.6137594438778365E9, 2021-02-19 16:30:43.877
48.0, -10605.8349609375, 18601.814453125, -14452.615234375, 134669.8125, -187500.015625, -2177.462158203125, -187500.015625, -187500.015625, -0.1300000101327896, -0.6380000114440918, 0.7640000581741333, 192.0, 0.0, 0.0, 0.0, 0.0, 0.0, 0.0, 0.0, 0.0, 0.0, 1.6137594439429636E9, 2021-02-19 16:30:43.942
163.0, -9269.0888671875, 19056.068359375, -14025.048828125, 135104.421875, -187500.015625, 148847.40625, -187500.015625, -187500.015625, -0.1300000101327896, -0.6380000114440918, 0.7640000581741333, 192.0, 0.0, 0.0, 0.0, 0.0, 0.0, 0.0, 0.0, 0.0, 0.0, 1.6137594440562773E9, 2021-02-19 16:30:44.056
100.0, -8018.73291015625, 18314.951171875, -14741.376953125, 134383.3125, -187500.015625, 84445.2265625, -187500.015625, -187500.015625, -0.1300000101327896, -0.6380000114440918, 0.7640000581741333, 192.0, 0.0, 0.0, 0.0, 0.0, 0.0, 0.0, 0.0, 0.0, 0.0, 1.6137594441872315E9, 2021-02-19 16:30:44.187
197.0, -9370.7900390625, 19123.16796875, -13974.4892578125, 135158.0625, -187500.015625, 155159.6875, -187500.015625, -187500.015625, -0.1300000101327896, -0.6380000114440918, 0.7640000581741333, 192.0, 0.0, 0.0, 0.0, 0.0, 0.0, 0.0, 0.0, 0.0, 0.0, 1.6137594442132897E9, 2021-02-19 16:30:44.213
240.0, -9131.73828125, 19932.771484375, -13184.51171875, 135933.109375, -187500.015625, 108468.6328125, -187500.015625, -187500.015625, -0.1300000101327896, -0.6380000114440918, 0.7640000581741333, 192.0, 0.0, 0.0, 0.0, 0.0, 0.0, 0.0, 0.0, 0.0, 0.0, 1.613759444228273E9, 2021-02-19 16:30:44.228
241.0, -9066.2919921875, 20032.7734375, -13081.3583984375, 136039.46875, -187500.015625, 105995.96875, -187500.015625, -187500.015625, -0.1300000101327896, -0.6380000114440918, 0.7640000581741333, 192.0, 0.0, 0.0, 0.0, 0.0, 0.0, 0.0, 0.0, 0.0, 0.0, 1.6137594443895948E9, 2021-02-19 16:30:44.389
242.0, -8783.5419921875, 19860.931640625, -13247.498046875, 135874.328125, -187500.015625, 105356.0390625, -187500.015625, -187500.015625, -0.1300000101327896, -0.6380000114440918, 0.7640000581741333, 192.0, 0.0, 0.0, 0.0, 0.0, 0.0, 0.0, 0.0, 0.0, 0.0, 1.6137594445206003E9, 2021-02-19 16:30:44.520
243.0, -8731.1279296875, 19773.134765625, -13335.6318359375, 135778.953125, -187500.015625, 105053.84375, -187500.015625, -187500.015625, -0.1300000101327896, -0.6380000114440918, 0.7640000581741333, 192.0, 0.0, 0.0, 0.0, 0.0, 0.0, 0.0, 0.0, 0.0, 0.0, 1.6137594445468085E9, 2021-02-19 16:30:44.546
244.0, -9047.2255859375, 19933.3515625, -13182.052734375, 135928.234375, -187500.015625, 102879.9609375, -187500.015625, -187500.015625, -0.12600000202655792, -0.6320000290870667, 0.7640000581741333, 192.0, 252.0, 16.0, 236.0, 64.0, 23.0, 224.0, 0.0, 0.0, 0.0, 1.6137594445515904E9, 2021-02-19 16:30:44.551
57.0, -9628.5947265625, 19574.71875, -13548.7109375, 135545.40625, -187500.015625, 37184.31640625, -187500.015625, -187500.015625, -0.12800000607967377, -0.6260000467300415, 0.7700000405311584, 192.0, 252.0, 0.0, 236.0, 112.0, 24.0, 16.0, 0.0, 0.0, 0.0, 1.6137594445546265E9, 2021-02-19 16:30:44.554
23.0, -9158.515625, 19823.29296875, -13292.0234375, 135816.921875, -187500.015625, 56548.68359375, -187500.015625, -187500.015625, -0.12800000607967377, -0.6260000467300415, 0.7700000405311584, 192.0, 0.0, 0.0, 0.0, 0.0, 0.0, 0.0, 0.0, 0.0, 0.0, 1.6137594445576537E9, 2021-02-19 16:30:44.557
93.0, -9913.8701171875, 19851.65625, -13296.962890625, 135776.359375, -187500.015625, 1547.590087890625, -187500.015625, -187500.015625, -0.12800000607967377, -0.6260000467300415, 0.7700000405311584, 192.0, 0.0, 0.0, 0.0, 0.0, 0.0, 0.0, 0.0, 0.0, 0.0, 1.6137594445646446E9, 2021-02-19 16:30:44.564
248.0, -8960.3896484375, 19970.142578125, -13150.6259765625, 135962.8125, -187500.015625, 96609.7109375, -187500.015625, -187500.015625, -0.12800000607967377, -0.6260000467300415, 0.7700000405311584, 192.0, 0.0, 0.0, 0.0, 0.0, 0.0, 0.0, 0.0, 0.0, 0.0, 1.6137594445686283E9, 2021-02-19 16:30:44.568
91.0, -9418.3095703125, 19565.978515625, -13573.2080078125, 135508.34375, -187500.015625, 4843.13134765625, -187500.015625, -187500.015625, -0.12800000607967377, -0.6260000467300415, 0.7700000405311584, 192.0, 0.0, 0.0, 0.0, 0.0, 0.0, 0.0, 0.0, 0.0, 0.0, 1.6137594445738125E9, 2021-02-19 16:30:44.573
73.0, -9922.9453125, 19756.52734375, -13367.3037109375, 135709.8125, -187500.015625, 19680.107421875, -187500.015625, -187500.015625, -0.12800000607967377, -0.6260000467300415, 0.7700000405311584, 192.0, 0.0, 0.0, 0.0, 0.0, 0.0, 0.0, 0.0, 0.0, 0.0, 1.613759444577603E9, 2021-02-19 16:30:44.577
251.0, -8691.0732421875, 19848.818359375, -13264.5751953125, 135858.703125, -187500.015625, 91820.203125, -187500.015625, -187500.015625, -0.12800000607967377, -0.6260000467300415, 0.7700000405311584, 192.0, 0.0, 0.0, 0.0, 0.0, 0.0, 0.0, 0.0, 0.0, 0.0, 1.6137594446006536E9, 2021-02-19 16:30:44.600
88.0, -9757.2734375, 19693.583984375, -13444.1044921875, 135625.21875, -187500.015625, 7691.21240234375, -187500.015625, -187500.015625, -0.12800000607967377, -0.6260000467300415, 0.7700000405311584, 192.0, 0.0, 0.0, 0.0, 0.0, 0.0, 0.0, 0.0, 0.0, 0.0, 1.6137594446068807E9, 2021-02-19 16:30:44.606
71.0, -9813.890625, 19580.59765625, -13543.1005859375, 135528.96875, -187500.015625, 23133.8984375, -187500.015625, -187500.015625, -0.12800000607967377, -0.6260000467300415, 0.7700000405311584, 192.0, 0.0, 0.0, 0.0, 0.0, 0.0, 0.0, 0.0, 0.0, 0.0, 1.6137594446096225E9, 2021-02-19 16:30:44.609
49.0, -9206.28125, 19480.751953125, -13646.0078125, 135463.75, -187500.015625, 42108.7421875, -187500.015625, -187500.015625, -0.12800000607967377, -0.6260000467300415, 0.7700000405311584, 192.0, 0.0, 0.0, 0.0, 0.0, 0.0, 0.0, 0.0, 0.0, 0.0, 1.6137594446227643E9, 2021-02-19 16:30:44.622
47.0, -9594.5087890625, 19693.25, -13438.8515625, 135665.359375, -187500.015625, 42035.828125, -187500.015625, -187500.015625, -0.12200000882148743, -0.6260000467300415, 0.7640000581741333, 192.0, 252.0, 48.0, 236.0, 112.0, 23.0, 224.0, 0.0, 0.0, 0.0, 1.6137594446276948E9, 2021-02-19 16:30:44.627
86.0, -9699.6728515625, 19739.33984375, -13398.439453125, 135685.984375, -187500.015625, 8616.41796875, -187500.015625, -187500.015625, -0.12800000607967377, -0.6320000290870667, 0.7740000486373901, 192.0, 252.0, 0.0, 236.0, 64.0, 24.0, 48.0, 0.0, 0.0, 0.0, 1.6137594446487656E9, 2021-02-19 16:30:44.648
84.0, -9922.251953125, 19705.72265625, -13434.0234375, 135638.890625, -187500.015625, 11360.0947265625, -187500.015625, -187500.015625, -0.12800000607967377, -0.6320000290870667, 0.7740000486373901, 192.0, 0.0, 0.0, 0.0, 0.0, 0.0, 0.0, 0.0, 0.0, 0.0, 1.613759444651745E9, 2021-02-19 16:30:44.651
106.0, -9928.845703125, 19873.001953125, -13279.1484375, 135792.90625, -187500.015625, -10102.83203125, -187500.015625, -187500.015625, -0.12600000202655792, -0.64000004529953, 0.7760000228881836, 192.0, 252.0, 16.0, 236.0, 0.0, 24.0, 64.0, 0.0, 0.0, 0.0, 1.613759444654883E9, 2021-02-19 16:30:44.654
104.0, -9573.85546875, 19596.400390625, -13548.46484375, 135525.90625, -187500.015625, -6415.6435546875, -187500.015625, -187500.015625, -0.12600000202655792, -0.64000004529953, 0.7760000228881836, 192.0, 0.0, 0.0, 0.0, 0.0, 0.0, 0.0, 0.0, 0.0, 0.0, 1.6137594446738307E9, 2021-02-19 16:30:44.673
82.0, -9741.76171875, 19619.109375, -13514.802734375, 135568.4375, -187500.015625, 12758.375, -187500.015625, -187500.015625, -0.12600000202655792, -0.64000004529953, 0.7760000228881836, 192.0, 0.0, 0.0, 0.0, 0.0, 0.0, 0.0, 0.0, 0.0, 0.0, 1.6137594447049148E9, 2021-02-19 16:30:44.704
101.0, -9909.6904296875, 19738.17578125, -13409.9736328125, 135660.625, -187500.015625, -5136.89990234375, -187500.015625, -187500.015625, -0.12600000202655792, -0.64000004529953, 0.7760000228881836, 192.0, 0.0, 0.0, 0.0, 0.0, 0.0, 0.0, 0.0, 0.0, 0.0, 1.6137594447098136E9, 2021-02-19 16:30:44.709
80.0, -10031.3056640625, 19737.169921875, -13398.88671875, 135675.703125, -187500.015625, 14928.0146484375, -187500.015625, -187500.015625, -0.12600000202655792, -0.64000004529953, 0.7760000228881836, 192.0, 0.0, 0.0, 0.0, 0.0, 0.0, 0.0, 0.0, 0.0, 0.0, 1.6137594447408097E9, 2021-02-19 16:30:44.740
113.0, -9849.4296875, 19655.69921875, -13496.787109375, 135571.375, -187500.015625, -13369.6064453125, -187500.015625, -187500.015625, -0.12600000202655792, -0.64000004529953, 0.7760000228881836, 192.0, 0.0, 0.0, 0.0, 0.0, 0.0, 0.0, 0.0, 0.0, 0.0, 1.6137594447518504E9, 2021-02-19 16:30:44.751
99.0, -9449.2890625, 19646.982421875, -13491.7802734375, 135585.65625, -187500.015625, -3250.927001953125, -187500.015625, -187500.015625, -0.12600000202655792, -0.64000004529953, 0.7760000228881836, 192.0, 0.0, 0.0, 0.0, 0.0, 0.0, 0.0, 0.0, 0.0, 0.0, 1.6137594447548256E9, 2021-02-19 16:30:44.754
111.0, -9762.50390625, 19710.03515625, -13443.6123046875, 135636.84375, -187500.015625, -13103.9775390625, -187500.015625, -187500.015625, -0.12600000202655792, -0.64000004529953, 0.7760000228881836, 192.0, 0.0, 0.0, 0.0, 0.0, 0.0, 0.0, 0.0, 0.0, 0.0, 1.6137594447588377E9, 2021-02-19 16:30:44.758
97.0, -9861.7685546875, 19846.76171875, -13300.1591796875, 135771.625, -187500.015625, -2032.68994140625, -187500.015625, -187500.015625, -0.12600000202655792, -0.64000004529953, 0.7760000228881836, 192.0, 0.0, 0.0, 0.0, 0.0, 0.0, 0.0, 0.0, 0.0, 0.0, 1.6137594447619202E9, 2021-02-19 16:30:44.761
76.0, -10036.9833984375, 19759.791015625, -13372.1318359375, 135704.3125, -187500.015625, 17897.95703125, -187500.015625, -187500.015625, -0.12600000202655792, -0.64000004529953, 0.7760000228881836, 192.0, 0.0, 0.0, 0.0, 0.0, 0.0, 0.0, 0.0, 0.0, 0.0, 1.6137594447659724E9, 2021-02-19 16:30:44.765
109.0, -9891.25, 19711.712890625, -13444.841796875, 135624.1875, -187500.015625, -10804.05078125, -187500.015625, -187500.015625, -0.12600000202655792, -0.64000004529953, 0.7760000228881836, 192.0, 0.0, 0.0, 0.0, 0.0, 0.0, 0.0, 0.0, 0.0, 0.0, 1.6137594447698524E9, 2021-02-19 16:30:44.769
95.0, -9470.92578125, 19599.998046875, -13536.640625, 135541.328125, -187500.015625, 619.3221435546875, -187500.015625, -187500.015625, -0.12600000202655792, -0.64000004529953, 0.7760000228881836, 192.0, 0.0, 0.0, 0.0, 0.0, 0.0, 0.0, 0.0, 0.0, 0.0, 1.6137594447758458E9, 2021-02-19 16:30:44.775
107.0, -9661.33984375, 19701.251953125, -13444.9541015625, 135629.578125, -187500.015625, -10105.71484375, -187500.015625, -187500.015625, -0.12600000202655792, -0.64000004529953, 0.7760000228881836, 192.0, 0.0, 0.0, 0.0, 0.0, 0.0, 0.0, 0.0, 0.0, 0.0, 1.6137594447828965E9, 2021-02-19 16:30:44.782
121.0, -9480.5146484375, 19561.53125, -13591.6484375, 135469.609375, -187500.015625, -18979.55859375, -187500.015625, -187500.015625, -0.12600000202655792, -0.64000004529953, 0.7760000228881836, 192.0, 0.0, 0.0, 0.0, 0.0, 0.0, 0.0, 0.0, 0.0, 0.0, 1.6137594447868268E9, 2021-02-19 16:30:44.786
115.0, -9689.7490234375, 19671.634765625, -13478.3701171875, 135595.265625, -187500.015625, -16115.4287109375, -187500.015625, -187500.015625, -0.12600000202655792, -0.64000004529953, 0.7760000228881836, 192.0, 0.0, 0.0, 0.0, 0.0, 0.0, 0.0, 0.0, 0.0, 0.0, 1.613759444790866E9, 2021-02-19 16:30:44.790
127.0, -9846.859375, 19803.712890625, -13353.3115234375, 135711.3125, -187500.015625, -24798.701171875, -187500.015625, -187500.015625, -0.12600000202655792, -0.64000004529953, 0.7760000228881836, 192.0, 0.0, 0.0, 0.0, 0.0, 0.0, 0.0, 0.0, 0.0, 0.0, 1.6137594447938728E9, 2021-02-19 16:30:44.793
117.0, -9435.9228515625, 19595.68359375, -13555.0810546875, 135510.46875, -187500.015625, -16128.0126953125, -187500.015625, -187500.015625, -0.12600000202655792, -0.64000004529953, 0.7760000228881836, 192.0, 0.0, 0.0, 0.0, 0.0, 0.0, 0.0, 0.0, 0.0, 0.0, 1.6137594448250027E9, 2021-02-19 16:30:44.825
125.0, -9412.9453125, 19548.1875, -13601.728515625, 135457.46875, -187500.015625, -21462.837890625, -187500.015625, -187500.015625, -0.12600000202655792, -0.64000004529953, 0.7760000228881836, 192.0, 0.0, 0.0, 0.0, 0.0, 0.0, 0.0, 0.0, 0.0, 0.0, 1.6137594448460789E9, 2021-02-19 16:30:44.846
119.0, -9499.357421875, 19783.86328125, -13370.74609375, 135703.21875, -187500.015625, -19289.935546875, -187500.015625, -187500.015625, -0.12600000202655792, -0.64000004529953, 0.7760000228881836, 192.0, 0.0, 0.0, 0.0, 0.0, 0.0, 0.0, 0.0, 0.0, 0.0, 1.61375944509319E9, 2021-02-19 16:30:45.093
138.0, -10380.529296875, 19535.0, -13623.3203125, 135429.546875, -187500.015625, -29216.478515625, -187500.015625, -187500.015625, -0.12600000202655792, -0.64000004529953, 0.7760000228881836, 192.0, 0.0, 0.0, 0.0, 0.0, 0.0, 0.0, 0.0, 0.0, 0.0, 1.6137594452696009E9, 2021-02-19 16:30:45.269
132.0, -10242.6865234375, 19657.642578125, -13493.5908203125, 135572.0, -187500.015625, -27492.3984375, -187500.015625, -187500.015625, -0.12600000202655792, -0.64000004529953, 0.7760000228881836, 192.0, 0.0, 0.0, 0.0, 0.0, 0.0, 0.0, 0.0, 0.0, 0.0, 1.613759445474684E9, 2021-02-19 16:30:45.474
208.0, -9408.6083984375, 19602.255859375, -13569.296875, 135423.15625, -187500.015625, -116774.71875, -187500.015625, -187500.015625, -0.12600000202655792, -0.64000004529953, 0.7760000228881836, 192.0, 0.0, 0.0, 0.0, 0.0, 0.0, 0.0, 0.0, 0.0, 0.0, 1.6137594455978107E9, 2021-02-19 16:30:45.597
16.0, -10601.8564453125, 19109.935546875, -14080.66015625, 134854.96875, -187500.015625, -89141.2109375, -187500.015625, -187500.015625, -0.12600000202655792, -0.64000004529953, 0.7760000228881836, 192.0, 0.0, 0.0, 0.0, 0.0, 0.0, 0.0, 0.0, 0.0, 0.0, 1.6137594456228263E9, 2021-02-19 16:30:45.622
17.0, -10664.0615234375, 19174.623046875, -14016.755859375, 134928.9375, -187500.015625, -88996.75, -187500.015625, -187500.015625, -0.12600000202655792, -0.64000004529953, 0.7760000228881836, 192.0, 0.0, 0.0, 0.0, 0.0, 0.0, 0.0, 0.0, 0.0, 0.0, 1.6137594456258183E9, 2021-02-19 16:30:45.625
108.0, -10264.4345703125, 19728.275390625, -13499.044921875, 135385.234375, -187500.015625, -109246.3828125, -187500.015625, -187500.015625, -0.12600000202655792, -0.64000004529953, 0.7760000228881836, 192.0, 0.0, 0.0, 0.0, 0.0, 0.0, 0.0, 0.0, 0.0, 0.0, 1.6137594456758792E9, 2021-02-19 16:30:45.675
109.0, -10237.2548828125, 19765.2890625, -13463.9970703125, 135428.546875, -187500.015625, -110601.7734375, -187500.015625, -187500.015625, -0.12600000202655792, -0.64000004529953, 0.7760000228881836, 192.0, 0.0, 0.0, 0.0, 0.0, 0.0, 0.0, 0.0, 0.0, 0.0, 1.6137594457299936E9, 2021-02-19 16:30:45.729
110.0, -9931.6396484375, 19560.748046875, -13664.4482421875, 135230.625, -187500.015625, -110089.9375, -187500.015625, -187500.015625, -0.12600000202655792, -0.64000004529953, 0.7760000228881836, 192.0, 0.0, 0.0, 0.0, 0.0, 0.0, 0.0, 0.0, 0.0, 0.0, 1.613759445760966E9, 2021-02-19 16:30:45.760
111.0, -9887.6513671875, 19445.861328125, -13778.888671875, 135109.765625, -187500.015625, -109277.4296875, -187500.015625, -187500.015625, -0.12600000202655792, -0.64000004529953, 0.7760000228881836, 192.0, 0.0, 0.0, 0.0, 0.0, 0.0, 0.0, 0.0, 0.0, 0.0, 1.6137594457770965E9, 2021-02-19 16:30:45.777
112.0, -10261.439453125, 19616.583984375, -13612.5693359375, 135269.265625, -187500.015625, -110204.53125, -187500.015625, -187500.015625, -0.12600000202655792, -0.64000004529953, 0.7760000228881836, 192.0, 0.0, 0.0, 0.0, 0.0, 0.0, 0.0, 0.0, 0.0, 0.0, 1.6137594458071806E9, 2021-02-19 16:30:45.807
113.0, -10318.5263671875, 19731.626953125, -13497.3017578125, 135389.71875, -187500.015625, -111531.7578125, -187500.015625, -187500.015625, -0.12600000202655792, -0.64000004529953, 0.7760000228881836, 192.0, 0.0, 0.0, 0.0, 0.0, 0.0, 0.0, 0.0, 0.0, 0.0, 1.6137594458623056E9, 2021-02-19 16:30:45.862
114.0, -10004.796875, 19605.18359375, -13617.7099609375, 135270.5625, -187500.015625, -111089.640625, -187500.015625, -187500.015625, -0.12600000202655792, -0.64000004529953, 0.7760000228881836, 192.0, 0.0, 0.0, 0.0, 0.0, 0.0, 0.0, 0.0, 0.0, 0.0, 1.6137594459402285E9, 2021-02-19 16:30:45.940
115.0, -9870.1728515625, 19432.583984375, -13787.78515625, 135094.34375, -187500.015625, -109899.2109375, -187500.015625, -187500.015625, -0.12600000202655792, -0.64000004529953, 0.7760000228881836, 192.0, 0.0, 0.0, 0.0, 0.0, 0.0, 0.0, 0.0, 0.0, 0.0, 1.613759446028286E9, 2021-02-19 16:30:46.028
116.0, -10234.7958984375, 19543.537109375, -13681.2119140625, 135194.5625, -187500.015625, -110296.109375, -187500.015625, -187500.015625, -0.1300000101327896, -0.6300000548362732, 0.7680000066757202, 192.0, 251.0, 240.0, 236.0, 80.0, 24.0, 0.0, 0.0, 0.0, 0.0, 1.6137594463056E9, 2021-02-19 16:30:46.305
117.0, -10417.0302734375, 19612.828125, -13613.0390625, 135269.890625, -187500.015625, -111531.7109375, -187500.015625, -187500.015625, -0.1300000101327896, -0.6300000548362732, 0.7680000066757202, 192.0, 0.0, 0.0, 0.0, 0.0, 0.0, 0.0, 0.0, 0.0, 0.0, 1.6137594467421274E9, 2021-02-19 16:30:46.742
228.0, -9984.904296875, 19509.4296875, -13738.1865234375, 135063.296875, -187500.015625, -109613.9375, -187500.015625, -187500.015625, -0.1300000101327896, -0.6300000548362732, 0.7680000066757202, 192.0, 0.0, 0.0, 0.0, 0.0, 0.0, 0.0, 0.0, 0.0, 0.0, 1.613759446763168E9, 2021-02-19 16:30:46.763
40.0, -10527.1796875, 19464.591796875, -13814.205078125, 134911.03125, -187500.015625, -136745.015625, -187500.015625, -187500.015625, -0.1300000101327896, -0.6300000548362732, 0.7680000066757202, 192.0, 0.0, 0.0, 0.0, 0.0, 0.0, 0.0, 0.0, 0.0, 0.0, 1.6137594468813186E9, 2021-02-19 16:30:46.881
132.0, -10636.2333984375, 19636.408203125, -13652.51171875, 134978.015625, -187500.015625, -145151.578125, -187500.015625, -187500.015625, -0.1300000101327896, -0.6300000548362732, 0.7680000066757202, 192.0, 0.0, 0.0, 0.0, 0.0, 0.0, 0.0, 0.0, 0.0, 0.0, 1.6137594468924012E9, 2021-02-19 16:30:46.892
133.0, -10480.6435546875, 19611.822265625, -13676.3388671875, 134963.03125, -187500.015625, -145792.40625, -187500.015625, -187500.015625, -0.1300000101327896, -0.6300000548362732, 0.7680000066757202, 192.0, 0.0, 0.0, 0.0, 0.0, 0.0, 0.0, 0.0, 0.0, 0.0, 1.6137594468982885E9, 2021-02-19 16:30:46.898
134.0, -10169.037109375, 19418.033203125, -13865.3681640625, 134776.1875, -187500.015625, -144721.375, -187500.015625, -187500.015625, -0.1300000101327896, -0.6300000548362732, 0.7680000066757202, 192.0, 0.0, 0.0, 0.0, 0.0, 0.0, 0.0, 0.0, 0.0, 0.0, 1.613759446903514E9, 2021-02-19 16:30:46.903
135.0, -10235.6904296875, 19404.197265625, -13879.8515625, 134747.4375, -187500.015625, -144128.640625, -187500.015625, -187500.015625, -0.1300000101327896, -0.6300000548362732, 0.7680000066757202, 192.0, 0.0, 0.0, 0.0, 0.0, 0.0, 0.0, 0.0, 0.0, 0.0, 1.613759446907337E9, 2021-02-19 16:30:46.907
176.0, -10287.5244140625, 19232.625, -14068.076171875, 134538.859375, -187500.015625, -141653.015625, -187500.015625, -187500.015625, -0.1300000101327896, -0.6300000548362732, 0.7680000066757202, 192.0, 0.0, 0.0, 0.0, 0.0, 0.0, 0.0, 0.0, 0.0, 0.0, 1.6137594469103117E9, 2021-02-19 16:30:46.910
174.0, -10765.962890625, 19511.26171875, -13797.10546875, 134805.203125, -187500.015625, -143638.734375, -187500.015625, -187500.015625, -0.1300000101327896, -0.6300000548362732, 0.7680000066757202, 192.0, 0.0, 0.0, 0.0, 0.0, 0.0, 0.0, 0.0, 0.0, 0.0, 1.6137594469133852E9, 2021-02-19 16:30:46.913
138.0, -10189.400390625, 19383.052734375, -13905.3330078125, 134729.71875, -187500.015625, -145239.84375, -187500.015625, -187500.015625, -0.1300000101327896, -0.6300000548362732, 0.7680000066757202, 192.0, 0.0, 0.0, 0.0, 0.0, 0.0, 0.0, 0.0, 0.0, 0.0, 1.6137594469172945E9, 2021-02-19 16:30:46.917
139.0, -10169.841796875, 19341.5, -13948.359375, 134678.9375, -187500.015625, -144330.46875, -187500.015625, -187500.015625, -0.1300000101327896, -0.6300000548362732, 0.7680000066757202, 192.0, 0.0, 0.0, 0.0, 0.0, 0.0, 0.0, 0.0, 0.0, 0.0, 1.613759446920375E9, 2021-02-19 16:30:46.920
172.0, -10245.7490234375, 19229.294921875, -14067.0703125, 134538.703125, -187500.015625, -142728.984375, -187500.015625, -187500.015625, -0.1300000101327896, -0.6300000548362732, 0.7680000066757202, 192.0, 0.0, 0.0, 0.0, 0.0, 0.0, 0.0, 0.0, 0.0, 0.0, 1.613759446923396E9, 2021-02-19 16:30:46.923
141.0, -10502.9052734375, 19640.791015625, -13654.9931640625, 134981.3125, -187500.015625, -146255.78125, -187500.015625, -187500.015625, -0.1300000101327896, -0.6300000548362732, 0.7680000066757202, 192.0, 0.0, 0.0, 0.0, 0.0, 0.0, 0.0, 0.0, 0.0, 0.0, 1.613759446926319E9, 2021-02-19 16:30:46.926
142.0, -10193.982421875, 19454.197265625, -13835.3271484375, 134800.171875, -187500.015625, -145419.015625, -187500.015625, -187500.015625, -0.1300000101327896, -0.6300000548362732, 0.7680000066757202, 192.0, 0.0, 0.0, 0.0, 0.0, 0.0, 0.0, 0.0, 0.0, 0.0, 1.6137594469304564E9, 2021-02-19 16:30:46.930
170.0, -10657.1103515625, 19548.142578125, -13757.1181640625, 134852.734375, -187500.015625, -144865.921875, -187500.015625, -187500.015625, -0.1300000101327896, -0.6300000548362732, 0.7680000066757202, 192.0, 0.0, 0.0, 0.0, 0.0, 0.0, 0.0, 0.0, 0.0, 0.0, 1.6137594469334197E9, 2021-02-19 16:30:46.933
144.0, -10479.458984375, 19490.83203125, -13807.5888671875, 134815.078125, -187500.015625, -144824.75, -187500.015625, -187500.015625, -0.1300000101327896, -0.6300000548362732, 0.7680000066757202, 192.0, 0.0, 0.0, 0.0, 0.0, 0.0, 0.0, 0.0, 0.0, 0.0, 1.6137594469364736E9, 2021-02-19 16:30:46.936
168.0, -10196.8876953125, 19281.708984375, -14012.5087890625, 134597.84375, -187500.015625, -143358.515625, -187500.015625, -187500.015625, -0.1300000101327896, -0.6300000548362732, 0.7680000066757202, 192.0, 0.0, 0.0, 0.0, 0.0, 0.0, 0.0, 0.0, 0.0, 0.0, 1.6137594469393096E9, 2021-02-19 16:30:46.939
146.0, -10276.392578125, 19489.736328125, -13803.6103515625, 134829.03125, -187500.015625, -145822.484375, -187500.015625, -187500.015625, -0.1300000101327896, -0.6180000305175781, 0.7760000228881836, 192.0, 251.0, 240.0, 236.0, 176.0, 24.0, 64.0, 0.0, 0.0, 0.0, 1.6137594469433136E9, 2021-02-19 16:30:46.943
147.0, -10104.84375, 19330.4140625, -13961.390625, 134665.65625, -187500.015625, -144459.46875, -187500.015625, -187500.015625, -0.1300000101327896, -0.6180000305175781, 0.7760000228881836, 192.0, 0.0, 0.0, 0.0, 0.0, 0.0, 0.0, 0.0, 0.0, 0.0, 1.6137594469464998E9, 2021-02-19 16:30:46.946
148.0, -10422.4169921875, 19456.72265625, -13841.943359375, 134773.796875, -187500.015625, -144685.078125, -187500.015625, -187500.015625, -0.1300000101327896, -0.6180000305175781, 0.7760000228881836, 192.0, 0.0, 0.0, 0.0, 0.0, 0.0, 0.0, 0.0, 0.0, 0.0, 1.6137594469493604E9, 2021-02-19 16:30:46.949
166.0, -10622.1298828125, 19584.6875, -13717.4658203125, 134893.3125, -187500.015625, -145474.734375, -187500.015625, -187500.015625, -0.1300000101327896, -0.6180000305175781, 0.7760000228881836, 192.0, 0.0, 0.0, 0.0, 0.0, 0.0, 0.0, 0.0, 0.0, 0.0, 1.613759446953422E9, 2021-02-19 16:30:46.953
186.0, -10822.0888671875, 19384.884765625, -13930.791015625, 134669.125, -187500.015625, -138618.234375, -187500.015625, -187500.015625, -0.1300000101327896, -0.6180000305175781, 0.7760000228881836, 192.0, 0.0, 0.0, 0.0, 0.0, 0.0, 0.0, 0.0, 0.0, 0.0, 1.6137594469563518E9, 2021-02-19 16:30:46.956
184.0, -10414.7275390625, 19250.88671875, -14055.1787109375, 134556.625, -187500.015625, -139265.046875, -187500.015625, -187500.015625, -0.1300000101327896, -0.6180000305175781, 0.7760000228881836, 192.0, 0.0, 0.0, 0.0, 0.0, 0.0, 0.0, 0.0, 0.0, 0.0, 1.6137594469595172E9, 2021-02-19 16:30:46.959
152.0, -10356.9482421875, 19417.80859375, -13882.01953125, 134734.671875, -187500.015625, -144476.375, -187500.015625, -187500.015625, -0.1300000101327896, -0.6180000305175781, 0.7760000228881836, 192.0, 0.0, 0.0, 0.0, 0.0, 0.0, 0.0, 0.0, 0.0, 0.0, 1.6137594469635012E9, 2021-02-19 16:30:46.963
182.0, -10822.580078125, 19433.880859375, -13882.578125, 134720.328125, -187500.015625, -140369.4375, -187500.015625, -187500.015625, -0.1300000101327896, -0.6180000305175781, 0.7760000228881836, 192.0, 0.0, 0.0, 0.0, 0.0, 0.0, 0.0, 0.0, 0.0, 0.0, 1.6137594469665108E9, 2021-02-19 16:30:46.966
154.0, -10444.8134765625, 19488.126953125, -13814.5849609375, 134813.953125, -187500.015625, -146047.765625, -187500.015625, -187500.015625, -0.1300000101327896, -0.6180000305175781, 0.7760000228881836, 192.0, 0.0, 0.0, 0.0, 0.0, 0.0, 0.0, 0.0, 0.0, 0.0, 1.613759446969525E9, 2021-02-19 16:30:46.969
160.0, -10253.794921875, 19323.619140625, -13975.5615234375, 134637.765625, -187500.015625, -144231.6875, -187500.015625, -187500.015625, -0.1300000101327896, -0.6180000305175781, 0.7760000228881836, 192.0, 0.0, 0.0, 0.0, 0.0, 0.0, 0.0, 0.0, 0.0, 0.0, 1.6137594469723754E9, 2021-02-19 16:30:46.972
180.0, -10327.66796875, 19269.28125, -14035.822265625, 134573.953125, -187500.015625, -140439.84375, -187500.015625, -187500.015625, -0.1300000101327896, -0.6180000305175781, 0.7760000228881836, 192.0, 0.0, 0.0, 0.0, 0.0, 0.0, 0.0, 0.0, 0.0, 0.0, 1.6137594469754393E9, 2021-02-19 16:30:46.975
178.0, -10818.7578125, 19471.275390625, -13839.998046875, 134762.796875, -187500.015625, -142020.78125, -187500.015625, -187500.015625, -0.1300000101327896, -0.6180000305175781, 0.7760000228881836, 192.0, 0.0, 0.0, 0.0, 0.0, 0.0, 0.0, 0.0, 0.0, 0.0, 1.6137594469794154E9, 2021-02-19 16:30:46.979
189.0, -10369.6220703125, 19191.36328125, -14119.4619140625, 134488.1875, -187500.015625, -136348.75, -187500.015625, -187500.015625, -0.1300000101327896, -0.6180000305175781, 0.7760000228881836, 192.0, 0.0, 0.0, 0.0, 0.0, 0.0, 0.0, 0.0, 0.0, 0.0, 1.6137594469824355E9, 2021-02-19 16:30:46.982
187.0, -10774.814453125, 19418.3671875, -13899.0966796875, 134709.515625, -187500.015625, -139136.515625, -187500.015625, -187500.015625, -0.1300000101327896, -0.6180000305175781, 0.7760000228881836, 192.0, 0.0, 0.0, 0.0, 0.0, 0.0, 0.0, 0.0, 0.0, 0.0, 1.613759446991469E9, 2021-02-19 16:30:46.991
190.0, -10729.3291015625, 19360.521484375, -13956.607421875, 134645.9375, -187500.015625, -136678.671875, -187500.015625, -187500.015625, -0.1300000101327896, -0.6180000305175781, 0.7760000228881836, 192.0, 0.0, 0.0, 0.0, 0.0, 0.0, 0.0, 0.0, 0.0, 0.0, 1.6137594469954848E9, 2021-02-19 16:30:46.995
191.0, -10793.8134765625, 19434.3046875, -13878.64453125, 134728.0, -187500.015625, -137443.375, -187500.015625, -187500.015625, -0.1300000101327896, -0.6180000305175781, 0.7760000228881836, 192.0, 0.0, 0.0, 0.0, 0.0, 0.0, 0.0, 0.0, 0.0, 0.0, 1.613759446998404E9, 2021-02-19 16:30:46.998
192.0, -10470.0927734375, 19319.55078125, -13985.0166015625, 134623.09375, -187500.015625, -136735.609375, -187500.015625, -187500.015625, -0.1300000101327896, -0.6180000305175781, 0.7760000228881836, 192.0, 0.0, 0.0, 0.0, 0.0, 0.0, 0.0, 0.0, 0.0, 0.0, 1.61375944700141E9, 2021-02-19 16:30:47.001
193.0, -10318.3916015625, 19183.875, -14117.361328125, 134487.828125, -187500.015625, -135072.546875, -187500.015625, -187500.015625, -0.1300000101327896, -0.6180000305175781, 0.7760000228881836, 192.0, 0.0, 0.0, 0.0, 0.0, 0.0, 0.0, 0.0, 0.0, 0.0, 1.6137594470054357E9, 2021-02-19 16:30:47.005
194.0, -10641.486328125, 19353.861328125, -13953.58984375, 134644.875, -187500.015625, -135108.109375, -187500.015625, -187500.015625, -0.1300000101327896, -0.6180000305175781, 0.7760000228881836, 192.0, 0.0, 0.0, 0.0, 0.0, 0.0, 0.0, 0.0, 0.0, 0.0, 1.613759447008422E9, 2021-02-19 16:30:47.008
195.0, -10779.7099609375, 19477.623046875, -13831.884765625, 134770.90625, -187500.015625, -136077.0625, -187500.015625, -187500.015625, -0.1340000033378601, -0.6240000128746033, 0.7680000066757202, 192.0, 251.0, 208.0, 236.0, 128.0, 24.0, 0.0, 0.0, 0.0, 0.0, 1.6137594470114396E9, 2021-02-19 16:30:47.011
196.0, -10493.80859375, 19340.650390625, -13963.7822265625, 134639.890625, -187500.015625, -135536.53125, -187500.015625, -187500.015625, -0.1340000033378601, -0.6240000128746033, 0.7680000066757202, 192.0, 0.0, 0.0, 0.0, 0.0, 0.0, 0.0, 0.0, 0.0, 0.0, 1.6137594470145032E9, 2021-02-19 16:30:47.014
197.0, -10286.9873046875, 19179.607421875, -14122.591796875, 134476.40625, -187500.015625, -133949.65625, -187500.015625, -187500.015625, -0.1340000033378601, -0.6240000128746033, 0.7680000066757202, 192.0, 0.0, 0.0, 0.0, 0.0, 0.0, 0.0, 0.0, 0.0, 0.0, 1.6137594470176024E9, 2021-02-19 16:30:47.017
198.0, -10538.7578125, 19297.087890625, -14012.6884765625, 134581.484375, -187500.015625, -133766.375, -187500.015625, -187500.015625, -0.1340000033378601, -0.6240000128746033, 0.7680000066757202, 192.0, 0.0, 0.0, 0.0, 0.0, 0.0, 0.0, 0.0, 0.0, 0.0, 1.6137594470214648E9, 2021-02-19 16:30:47.021
199.0, -10699.0419921875, 19458.421875, -13853.029296875, 134748.09375, -187500.015625, -134897.578125, -187500.015625, -187500.015625, -0.1340000033378601, -0.6240000128746033, 0.7680000066757202, 192.0, 0.0, 0.0, 0.0, 0.0, 0.0, 0.0, 0.0, 0.0, 0.0, 1.6137594470244803E9, 2021-02-19 16:30:47.024
200.0, -10383.79296875, 19377.84375, -13930.634765625, 134675.609375, -187500.015625, -134835.4375, -187500.015625, -187500.015625, -0.1340000033378601, -0.6240000128746033, 0.7680000066757202, 192.0, 0.0, 0.0, 0.0, 0.0, 0.0, 0.0, 0.0, 0.0, 0.0, 1.6137594470295405E9, 2021-02-19 16:30:47.029
201.0, -10058.0390625, 19215.59375, -14088.5947265625, 134514.484375, -187500.015625, -133401.015625, -187500.015625, -187500.015625, -0.1340000033378601, -0.6240000128746033, 0.7680000066757202, 192.0, 0.0, 0.0, 0.0, 0.0, 0.0, 0.0, 0.0, 0.0, 0.0, 1.6137594470354877E9, 2021-02-19 16:30:47.035
202.0, -10228.068359375, 19276.12109375, -14031.7763671875, 134559.90625, -187500.015625, -133013.6875, -187500.015625, -187500.015625, -0.1340000033378601, -0.6240000128746033, 0.7680000066757202, 192.0, 0.0, 0.0, 0.0, 0.0, 0.0, 0.0, 0.0, 0.0, 0.0, 1.6137594470405989E9, 2021-02-19 16:30:47.040
203.0, -10583.1259765625, 19458.244140625, -13851.419921875, 134737.296875, -187500.015625, -134223.265625, -187500.015625, -187500.015625, -0.1340000033378601, -0.6240000128746033, 0.7680000066757202, 192.0, 0.0, 0.0, 0.0, 0.0, 0.0, 0.0, 0.0, 0.0, 0.0, 1.6137594470655596E9, 2021-02-19 16:30:47.065
204.0, -10480.0400390625, 19406.701171875, -13901.2421875, 134698.578125, -187500.015625, -134608.34375, -187500.015625, -187500.015625, -0.1340000033378601, -0.6240000128746033, 0.7680000066757202, 192.0, 0.0, 0.0, 0.0, 0.0, 0.0, 0.0, 0.0, 0.0, 0.0, 1.613759447069534E9, 2021-02-19 16:30:47.069
205.0, -10243.55859375, 19217.828125, -14088.169921875, 134516.015625, -187500.015625, -133368.578125, -187500.015625, -187500.015625, -0.1340000033378601, -0.6260000467300415, 0.7680000066757202, 192.0, 251.0, 208.0, 236.0, 112.0, 24.0, 0.0, 0.0, 0.0, 0.0, 1.613759447072503E9, 2021-02-19 16:30:47.072
206.0, -10386.6318359375, 19257.123046875, -14052.5634765625, 134541.09375, -187500.015625, -132717.765625, -187500.015625, -187500.015625, -0.1340000033378601, -0.6260000467300415, 0.7680000066757202, 192.0, 0.0, 0.0, 0.0, 0.0, 0.0, 0.0, 0.0, 0.0, 0.0, 1.6137594470956132E9, 2021-02-19 16:30:47.095
207.0, -10759.771484375, 19493.693359375, -13820.2841796875, 134771.3125, -187500.015625, -133852.203125, -187500.015625, -187500.015625, -0.1340000033378601, -0.6260000467300415, 0.7680000066757202, 192.0, 0.0, 0.0, 0.0, 0.0, 0.0, 0.0, 0.0, 0.0, 0.0, 1.6137594470996113E9, 2021-02-19 16:30:47.099
208.0, -10654.830078125, 19523.80078125, -13790.220703125, 134810.90625, -187500.015625, -134626.78125, -187500.015625, -187500.015625, -0.1340000033378601, -0.6260000467300415, 0.7680000066757202, 192.0, 0.0, 0.0, 0.0, 0.0, 0.0, 0.0, 0.0, 0.0, 0.0, 1.6137594471035352E9, 2021-02-19 16:30:47.103
209.0, -10364.302734375, 19340.62890625, -13969.1025390625, 134631.96875, -187500.015625, -133652.765625, -187500.015625, -187500.015625, -0.1340000033378601, -0.6260000467300415, 0.7680000066757202, 192.0, 0.0, 0.0, 0.0, 0.0, 0.0, 0.0, 0.0, 0.0, 0.0, 1.613759447107617E9, 2021-02-19 16:30:47.107
210.0, -10390.7890625, 19299.345703125, -14011.4365234375, 134579.796875, -187500.015625, -132832.234375, -187500.015625, -187500.015625, -0.1340000033378601, -0.6260000467300415, 0.7680000066757202, 192.0, 0.0, 0.0, 0.0, 0.0, 0.0, 0.0, 0.0, 0.0, 0.0, 1.61375944711266E9, 2021-02-19 16:30:47.112
211.0, -10806.6435546875, 19470.0234375, -13847.9560546875, 134737.96875, -187500.015625, -133772.96875, -187500.015625, -187500.015625, -0.1340000033378601, -0.6260000467300415, 0.7680000066757202, 192.0, 0.0, 0.0, 0.0, 0.0, 0.0, 0.0, 0.0, 0.0, 0.0, 1.6137594471155627E9, 2021-02-19 16:30:47.115
212.0, -10810.443359375, 19575.568359375, -13740.5556640625, 134849.5625, -187500.015625, -134937.65625, -187500.015625, -187500.015625, -0.1340000033378601, -0.6260000467300415, 0.7680000066757202, 192.0, 0.0, 0.0, 0.0, 0.0, 0.0, 0.0, 0.0, 0.0, 0.0, 1.6137594471386206E9, 2021-02-19 16:30:47.138
213.0, -10481.291015625, 19416.46875, -13895.0283203125, 134700.375, -187500.015625, -134405.109375, -187500.015625, -187500.015625, -0.1340000033378601, -0.6260000467300415, 0.7680000066757202, 192.0, 0.0, 0.0, 0.0, 0.0, 0.0, 0.0, 0.0, 0.0, 0.0, 1.6137594471447864E9, 2021-02-19 16:30:47.144
214.0, -10384.1728515625, 19298.00390625, -14014.2529296875, 134576.96875, -187500.015625, -133483.765625, -187500.015625, -187500.015625, -0.1380000114440918, -0.6300000548362732, 0.7680000066757202, 192.0, 251.0, 176.0, 236.0, 80.0, 24.0, 0.0, 0.0, 0.0, 0.0, 1.6137594471797523E9, 2021-02-19 16:30:47.179
215.0, -10696.1591796875, 19513.294921875, -13807.8115234375, 134779.625, -187500.015625, -134522.53125, -187500.015625, -187500.015625, -0.1380000114440918, -0.6300000548362732, 0.7680000066757202, 192.0, 0.0, 0.0, 0.0, 0.0, 0.0, 0.0, 0.0, 0.0, 0.0, 1.613759447182764E9, 2021-02-19 16:30:47.182
216.0, -10772.154296875, 19623.466796875, -13698.8251953125, 134893.40625, -187500.015625, -135876.1875, -187500.015625, -187500.015625, -0.1380000114440918, -0.6300000548362732, 0.7680000066757202, 192.0, 0.0, 0.0, 0.0, 0.0, 0.0, 0.0, 0.0, 0.0, 0.0, 1.6137594472407691E9, 2021-02-19 16:30:47.240
217.0, -10469.1767578125, 19473.46484375, -13844.8486328125, 134749.96875, -187500.015625, -135603.46875, -187500.015625, -187500.015625, -0.1380000114440918, -0.6300000548362732, 0.7680000066757202, 192.0, 0.0, 0.0, 0.0, 0.0, 0.0, 0.0, 0.0, 0.0, 0.0, 1.6137594472437916E9, 2021-02-19 16:30:47.243
218.0, -10298.7001953125, 19352.095703125, -13966.0625, 134626.515625, -187500.015625, -134575.359375, -187500.015625, -187500.015625, -0.1380000114440918, -0.6300000548362732, 0.7680000066757202, 192.0, 0.0, 0.0, 0.0, 0.0, 0.0, 0.0, 0.0, 0.0, 0.0, 1.6137594472687364E9, 2021-02-19 16:30:47.268
219.0, -10605.09765625, 19479.87890625, -13842.345703125, 134738.53125, -187500.015625, -135076.859375, -187500.015625, -187500.015625, -0.1380000114440918, -0.6300000548362732, 0.7680000066757202, 192.0, 0.0, 0.0, 0.0, 0.0, 0.0, 0.0, 0.0, 0.0, 0.0, 1.6137594472717817E9, 2021-02-19 16:30:47.271
220.0, -10778.7255859375, 19622.39453125, -13700.4345703125, 134885.125, -187500.015625, -136556.453125, -187500.015625, -187500.015625, -0.1380000114440918, -0.6300000548362732, 0.7680000066757202, 192.0, 0.0, 0.0, 0.0, 0.0, 0.0, 0.0, 0.0, 0.0, 0.0, 1.6137594472758665E9, 2021-02-19 16:30:47.275
221.0, -10487.86328125, 19538.822265625, -13779.2021484375, 134813.15625, -187500.015625, -136608.734375, -187500.015625, -187500.015625, -0.1380000114440918, -0.6300000548362732, 0.7680000066757202, 192.0, 0.0, 0.0, 0.0, 0.0, 0.0, 0.0, 0.0, 0.0, 0.0, 1.6137594473007646E9, 2021-02-19 16:30:47.300
222.0, -10245.7041015625, 19354.955078125, -13960.0498046875, 134627.703125, -187500.015625, -135486.140625, -187500.015625, -187500.015625, -0.1380000114440918, -0.6300000548362732, 0.7680000066757202, 192.0, 0.0, 0.0, 0.0, 0.0, 0.0, 0.0, 0.0, 0.0, 0.0, 1.6137594473048356E9, 2021-02-19 16:30:47.304
223.0, -10484.2197265625, 19430.392578125, -13891.36328125, 134685.84375, -187500.015625, -135596.34375, -187500.015625, -187500.015625, -0.1380000114440918, -0.6300000548362732, 0.7680000066757202, 192.0, 0.0, 0.0, 0.0, 0.0, 0.0, 0.0, 0.0, 0.0, 0.0, 1.6137594473208349E9, 2021-02-19 16:30:47.320
224.0, -10740.68359375, 19582.2734375, -13745.31640625, 134837.59375, -187500.015625, -137054.71875, -187500.015625, -187500.015625, -0.1300000101327896, -0.6340000033378601, 0.7640000581741333, 192.0, 251.0, 240.0, 236.0, 48.0, 23.0, 224.0, 0.0, 0.0, 0.0, 1.613759447323838E9, 2021-02-19 16:30:47.323
225.0, -10522.5751953125, 19512.1328125, -13812.2822265625, 134778.640625, -187500.015625, -137441.96875, -187500.015625, -187500.015625, -0.1300000101327896, -0.6340000033378601, 0.7640000581741333, 192.0, 0.0, 0.0, 0.0, 0.0, 0.0, 0.0, 0.0, 0.0, 0.0, 1.6137594473280249E9, 2021-02-19 16:30:47.328
232.0, -10570.1845703125, 19563.990234375, -13767.154296875, 134812.15625, -187500.015625, -138049.578125, -187500.015625, -187500.015625, -0.1300000101327896, -0.6340000033378601, 0.7640000581741333, 192.0, 0.0, 0.0, 0.0, 0.0, 0.0, 0.0, 0.0, 0.0, 0.0, 1.613759447334947E9, 2021-02-19 16:30:47.334
21.0, -10259.3828125, 19346.015625, -13977.7080078125, 134567.4375, -187500.015625, -143968.78125, -187500.015625, -187500.015625, -0.1300000101327896, -0.6340000033378601, 0.7640000581741333, 192.0, 0.0, 0.0, 0.0, 0.0, 0.0, 0.0, 0.0, 0.0, 0.0, 1.61375944733785E9, 2021-02-19 16:30:47.337
228.0, -10621.302734375, 19624.65234375, -13702.6474609375, 134872.34375, -187500.015625, -137602.609375, -187500.015625, -187500.015625, -0.1300000101327896, -0.6340000033378601, 0.7640000581741333, 192.0, 0.0, 0.0, 0.0, 0.0, 0.0, 0.0, 0.0, 0.0, 0.0, 1.6137594473410869E9, 2021-02-19 16:30:47.341
229.0, -10459.296875, 19580.484375, -13745.40625, 134840.453125, -187500.015625, -138337.421875, -187500.015625, -187500.015625, -0.1300000101327896, -0.6340000033378601, 0.7640000581741333, 192.0, 0.0, 0.0, 0.0, 0.0, 0.0, 0.0, 0.0, 0.0, 0.0, 1.61375944734482E9, 2021-02-19 16:30:47.344
19.0, -10419.6005859375, 19564.078125, -13759.912109375, 134792.296875, -187500.015625, -145607.3125, -187500.015625, -187500.015625, -0.1300000101327896, -0.6340000033378601, 0.7640000581741333, 192.0, 0.0, 0.0, 0.0, 0.0, 0.0, 0.0, 0.0, 0.0, 0.0, 1.6137594473478882E9, 2021-02-19 16:30:47.347
237.0, -10562.5849609375, 19646.556640625, -13677.45703125, 134896.96875, -187500.015625, -139454.078125, -187500.015625, -187500.015625, -0.1300000101327896, -0.6340000033378601, 0.7640000581741333, 192.0, 0.0, 0.0, 0.0, 0.0, 0.0, 0.0, 0.0, 0.0, 0.0, 1.613759447350822E9, 2021-02-19 16:30:47.350
17.0, -10230.3486328125, 19431.95703125, -13894.24609375, 134653.09375, -187500.015625, -143719.828125, -187500.015625, -187500.015625, -0.1300000101327896, -0.6340000033378601, 0.7640000581741333, 192.0, 0.0, 0.0, 0.0, 0.0, 0.0, 0.0, 0.0, 0.0, 0.0, 1.6137594473638282E9, 2021-02-19 16:30:47.363
5.0, -10715.470703125, 19519.443359375, -13805.46484375, 134738.359375, -187500.015625, -142218.203125, -187500.015625, -187500.015625, -0.1300000101327896, -0.6340000033378601, 0.7640000581741333, 192.0, 0.0, 0.0, 0.0, 0.0, 0.0, 0.0, 0.0, 0.0, 0.0, 1.613759447379872E9, 2021-02-19 16:30:47.379
250.0, -10609.6123046875, 19547.181640625, -13777.63671875, 134796.578125, -187500.015625, -141250.484375, -187500.015625, -187500.015625, -0.1300000101327896, -0.6340000033378601, 0.7640000581741333, 192.0, 0.0, 0.0, 0.0, 0.0, 0.0, 0.0, 0.0, 0.0, 0.0, 1.61375944738294E9, 2021-02-19 16:30:47.382
15.0, -10270.0224609375, 19533.658203125, -13789.70703125, 134761.8125, -187500.015625, -144995.765625, -187500.015625, -187500.015625, -0.1300000101327896, -0.6340000033378601, 0.7640000581741333, 192.0, 0.0, 0.0, 0.0, 0.0, 0.0, 0.0, 0.0, 0.0, 0.0, 1.6137594473859696E9, 2021-02-19 16:30:47.385
248.0, -10484.5771484375, 19413.49609375, -13909.9150390625, 134651.890625, -187500.015625, -139344.875, -187500.015625, -187500.015625, -0.1300000101327896, -0.6340000033378601, 0.7640000581741333, 192.0, 0.0, 0.0, 0.0, 0.0, 0.0, 0.0, 0.0, 0.0, 0.0, 1.6137594473889363E9, 2021-02-19 16:30:47.388
13.0, -10400.892578125, 19450.48828125, -13875.6494140625, 134667.0, -187500.015625, -143263.25, -187500.015625, -187500.015625, -0.1300000101327896, -0.6340000033378601, 0.7640000581741333, 192.0, 0.0, 0.0, 0.0, 0.0, 0.0, 0.0, 0.0, 0.0, 0.0, 1.6137594473929093E9, 2021-02-19 16:30:47.392
1.0, -10778.94921875, 19522.68359375, -13808.884765625, 134753.234375, -187500.015625, -141547.875, -187500.015625, -187500.015625, -0.1300000101327896, -0.6340000033378601, 0.7640000581741333, 192.0, 0.0, 0.0, 0.0, 0.0, 0.0, 0.0, 0.0, 0.0, 0.0, 1.6137594473959353E9, 2021-02-19 16:30:47.395
246.0, -10451.3173828125, 19504.376953125, -13822.564453125, 134755.109375, -187500.015625, -140546.0625, -187500.015625, -187500.015625, -0.1300000101327896, -0.6340000033378601, 0.7640000581741333, 192.0, 0.0, 0.0, 0.0, 0.0, 0.0, 0.0, 0.0, 0.0, 0.0, 1.6137594473988936E9, 2021-02-19 16:30:47.398
11.0, -10462.314453125, 19476.236328125, -13847.28515625, 134710.40625, -187500.015625, -144060.78125, -187500.015625, -187500.015625, -0.1300000101327896, -0.6340000033378601, 0.7640000581741333, 192.0, 0.0, 0.0, 0.0, 0.0, 0.0, 0.0, 0.0, 0.0, 0.0, 1.6137594474031162E9, 2021-02-19 16:30:47.403
27.0, -10623.4931640625, 19609.990234375, -13718.2265625, 134832.890625, -187500.015625, -146638.75, -187500.015625, -187500.015625, -0.1380000114440918, -0.6260000467300415, 0.7760000228881836, 192.0, 251.0, 176.0, 236.0, 112.0, 24.0, 64.0, 0.0, 0.0, 0.0, 1.6137594474059122E9, 2021-02-19 16:30:47.405
36.0, -10565.8037109375, 19505.607421875, -13823.1455078125, 134733.109375, -187500.015625, -147473.765625, -187500.015625, -187500.015625, -0.1380000114440918, -0.6260000467300415, 0.7760000228881836, 192.0, 0.0, 0.0, 0.0, 0.0, 0.0, 0.0, 0.0, 0.0, 0.0, 1.6137594474088948E9, 2021-02-19 16:30:47.408
7.0, -10450.423828125, 19454.376953125, -13866.3740234375, 134690.28125, -187500.015625, -143056.921875, -187500.015625, -187500.015625, -0.1380000114440918, -0.6260000467300415, 0.7760000228881836, 192.0, 0.0, 0.0, 0.0, 0.0, 0.0, 0.0, 0.0, 0.0, 0.0, 1.613759447411974E9, 2021-02-19 16:30:47.411
34.0, -10639.2509765625, 19497.224609375, -13833.29296875, 134709.84375, -187500.015625, -146243.703125, -187500.015625, -187500.015625, -0.1380000114440918, -0.6260000467300415, 0.7760000228881836, 192.0, 0.0, 0.0, 0.0, 0.0, 0.0, 0.0, 0.0, 0.0, 0.0, 1.6137594474158933E9, 2021-02-19 16:30:47.415
23.0, -10530.8447265625, 19564.458984375, -13758.4814453125, 134792.34375, -187500.015625, -146021.21875, -187500.015625, -187500.015625, -0.1380000114440918, -0.6260000467300415, 0.7760000228881836, 192.0, 0.0, 0.0, 0.0, 0.0, 0.0, 0.0, 0.0, 0.0, 0.0, 1.6137594474191892E9, 2021-02-19 16:30:47.419
28.0, -10294.9228515625, 19458.84765625, -13863.6689453125, 134689.796875, -187500.015625, -146185.59375, -187500.015625, -187500.015625, -0.1380000114440918, -0.6260000467300415, 0.7760000228881836, 192.0, 0.0, 0.0, 0.0, 0.0, 0.0, 0.0, 0.0, 0.0, 0.0, 1.6137594474219189E9, 2021-02-19 16:30:47.421
40.0, -10618.240234375, 19525.365234375, -13804.81640625, 134748.296875, -187500.015625, -148012.46875, -187500.015625, -187500.015625, -0.1380000114440918, -0.6260000467300415, 0.7760000228881836, 192.0, 0.0, 0.0, 0.0, 0.0, 0.0, 0.0, 0.0, 0.0, 0.0, 1.6137594474259431E9, 2021-02-19 16:30:47.425
30.0, -10588.736328125, 19568.416015625, -13758.951171875, 134778.046875, -187500.015625, -146033.34375, -187500.015625, -187500.015625, -0.1380000114440918, -0.6260000467300415, 0.7760000228881836, 192.0, 0.0, 0.0, 0.0, 0.0, 0.0, 0.0, 0.0, 0.0, 0.0, 1.6137594474289675E9, 2021-02-19 16:30:47.428
37.0, -10369.3984375, 19367.919921875, -13957.255859375, 134590.671875, -187500.015625, -146250.40625, -187500.015625, -187500.015625, -0.14400000870227814, -0.6260000467300415, 0.7740000486373901, 192.0, 251.0, 128.0, 236.0, 112.0, 24.0, 48.0, 0.0, 0.0, 0.0, 1.613759447431936E9, 2021-02-19 16:30:47.431
38.0, -10612.138671875, 19487.658203125, -13843.7978515625, 134696.015625, -187500.015625, -146351.265625, -187500.015625, -187500.015625, -0.14400000870227814, -0.6260000467300415, 0.7740000486373901, 192.0, 0.0, 0.0, 0.0, 0.0, 0.0, 0.0, 0.0, 0.0, 0.0, 1.6137594474352157E9, 2021-02-19 16:30:47.435
41.0, -10321.677734375, 19384.28125, -13942.0341796875, 134610.8125, -187500.015625, -146887.484375, -187500.015625, -187500.015625, -0.14400000870227814, -0.6260000467300415, 0.7740000486373901, 192.0, 0.0, 0.0, 0.0, 0.0, 0.0, 0.0, 0.0, 0.0, 0.0, 1.613759447438986E9, 2021-02-19 16:30:47.438
42.0, -10455.7431640625, 19425.87890625, -13901.935546875, 134641.734375, -187500.015625, -146676.125, -187500.015625, -187500.015625, -0.14400000870227814, -0.6260000467300415, 0.7740000486373901, 192.0, 0.0, 0.0, 0.0, 0.0, 0.0, 0.0, 0.0, 0.0, 0.0, 1.613759447441951E9, 2021-02-19 16:30:47.441
43.0, -10748.7080078125, 19587.90625, -13744.310546875, 134800.1875, -187500.015625, -148034.65625, -187500.015625, -187500.015625, -0.14400000870227814, -0.6260000467300415, 0.7740000486373901, 192.0, 0.0, 0.0, 0.0, 0.0, 0.0, 0.0, 0.0, 0.0, 0.0, 1.6137594474449732E9, 2021-02-19 16:30:47.444
44.0, -10573.537109375, 19570.427734375, -13761.0517578125, 134789.9375, -187500.015625, -148650.765625, -187500.015625, -187500.015625, -0.14400000870227814, -0.6260000467300415, 0.7740000486373901, 192.0, 0.0, 0.0, 0.0, 0.0, 0.0, 0.0, 0.0, 0.0, 0.0, 1.613759447448006E9, 2021-02-19 16:30:47.448
45.0, -10247.5595703125, 19423.6875, -13902.94140625, 134648.765625, -187500.015625, -147599.453125, -187500.015625, -187500.015625, -0.14400000870227814, -0.6260000467300415, 0.7740000486373901, 192.0, 0.0, 0.0, 0.0, 0.0, 0.0, 0.0, 0.0, 0.0, 0.0, 1.6137594474520428E9, 2021-02-19 16:30:47.452
46.0, -10285.9599609375, 19399.5703125, -13929.2939453125, 134616.21875, -187500.015625, -146994.078125, -187500.015625, -187500.015625, -0.14400000870227814, -0.6260000467300415, 0.7740000486373901, 192.0, 0.0, 0.0, 0.0, 0.0, 0.0, 0.0, 0.0, 0.0, 0.0, 1.6137594474559865E9, 2021-02-19 16:30:47.455
56.0, -10709.837890625, 19577.423828125, -13756.849609375, 134787.8125, -187500.015625, -149512.21875, -187500.015625, -187500.015625, -0.14400000870227814, -0.6260000467300415, 0.7740000486373901, 192.0, 0.0, 0.0, 0.0, 0.0, 0.0, 0.0, 0.0, 0.0, 0.0, 1.6137594474590976E9, 2021-02-19 16:30:47.459
48.0, -10568.2177734375, 19569.107421875, -13766.595703125, 134786.296875, -187500.015625, -148877.0, -187500.015625, -187500.015625, -0.14400000870227814, -0.6260000467300415, 0.7740000486373901, 192.0, 0.0, 0.0, 0.0, 0.0, 0.0, 0.0, 0.0, 0.0, 0.0, 1.6137594474621367E9, 2021-02-19 16:30:47.462
49.0, -10253.6611328125, 19387.96875, -13942.212890625, 134612.390625, -187500.015625, -147988.078125, -187500.015625, -187500.015625, -0.14400000870227814, -0.6260000467300415, 0.7740000486373901, 192.0, 0.0, 0.0, 0.0, 0.0, 0.0, 0.0, 0.0, 0.0, 0.0, 1.6137594474650571E9, 2021-02-19 16:30:47.465
52.0, -10599.8447265625, 19575.478515625, -13759.2861328125, 134795.5, -187500.015625, -149255.375, -187500.015625, -187500.015625, -0.14400000870227814, -0.6260000467300415, 0.7740000486373901, 192.0, 0.0, 0.0, 0.0, 0.0, 0.0, 0.0, 0.0, 0.0, 0.0, 1.6137594474689696E9, 2021-02-19 16:30:47.468
57.0, -10429.5244140625, 19463.33984375, -13867.759765625, 134684.703125, -187500.015625, -149209.828125, -187500.015625, -187500.015625, -0.1420000046491623, -0.6300000548362732, 0.7660000324249268, 192.0, 251.0, 144.0, 236.0, 80.0, 23.0, 240.0, 0.0, 0.0, 0.0, 1.613759447472984E9, 2021-02-19 16:30:47.472
58.0, -10271.251953125, 19328.357421875, -14004.0830078125, 134550.03125, -187500.015625, -148040.5, -187500.015625, -187500.015625, -0.1420000046491623, -0.6300000548362732, 0.7660000324249268, 192.0, 0.0, 0.0, 0.0, 0.0, 0.0, 0.0, 0.0, 0.0, 0.0, 1.6137594474772024E9, 2021-02-19 16:30:47.477
59.0, -10591.3515625, 19445.63671875, -13894.3798828125, 134659.28125, -187500.015625, -148351.203125, -187500.015625, -187500.015625, -0.1420000046491623, -0.6300000548362732, 0.7660000324249268, 192.0, 0.0, 0.0, 0.0, 0.0, 0.0, 0.0, 0.0, 0.0, 0.0, 1.6137594474810128E9, 2021-02-19 16:30:47.481
60.0, -10813.52734375, 19583.615234375, -13760.515625, 134798.734375, -187500.015625, -149698.484375, -187500.015625, -187500.015625, -0.1420000046491623, -0.6300000548362732, 0.7660000324249268, 192.0, 0.0, 0.0, 0.0, 0.0, 0.0, 0.0, 0.0, 0.0, 0.0, 1.6137594474839993E9, 2021-02-19 16:30:47.483
61.0, -10568.306640625, 19530.1484375, -13809.48828125, 134752.9375, -187500.015625, -149676.1875, -187500.015625, -187500.015625, -0.1420000046491623, -0.6300000548362732, 0.7660000324249268, 192.0, 0.0, 0.0, 0.0, 0.0, 0.0, 0.0, 0.0, 0.0, 0.0, 1.6137594474871044E9, 2021-02-19 16:30:47.487
62.0, -10348.8798828125, 19318.27734375, -14014.5205078125, 134545.265625, -187500.015625, -148386.5, -187500.015625, -187500.015625, -0.1420000046491623, -0.6300000548362732, 0.7660000324249268, 192.0, 0.0, 0.0, 0.0, 0.0, 0.0, 0.0, 0.0, 0.0, 0.0, 1.6137594474930885E9, 2021-02-19 16:30:47.493
63.0, -10625.1474609375, 19363.158203125, -13973.9296875, 134577.59375, -187500.015625, -148270.453125, -187500.015625, -187500.015625, -0.1420000046491623, -0.6300000548362732, 0.7660000324249268, 192.0, 0.0, 0.0, 0.0, 0.0, 0.0, 0.0, 0.0, 0.0, 0.0, 1.613759447504012E9, 2021-02-19 16:30:47.504
64.0, -10921.6650390625, 19544.119140625, -13797.7763671875, 134757.078125, -187500.015625, -149552.5, -187500.015625, -187500.015625, -0.1420000046491623, -0.6300000548362732, 0.7660000324249268, 192.0, 0.0, 0.0, 0.0, 0.0, 0.0, 0.0, 0.0, 0.0, 0.0, 1.6137594475071025E9, 2021-02-19 16:30:47.507
65.0, -10725.9091796875, 19494.2734375, -13840.78125, 134716.484375, -187500.015625, -149777.890625, -187500.015625, -187500.015625, -0.1420000046491623, -0.6300000548362732, 0.7660000324249268, 192.0, 0.0, 0.0, 0.0, 0.0, 0.0, 0.0, 0.0, 0.0, 0.0, 1.6137594475111463E9, 2021-02-19 16:30:47.511
66.0, -10457.62109375, 19327.955078125, -14001.6015625, 134554.5625, -187500.015625, -148506.640625, -187500.015625, -187500.015625, -0.1420000046491623, -0.6300000548362732, 0.7660000324249268, 192.0, 0.0, 0.0, 0.0, 0.0, 0.0, 0.0, 0.0, 0.0, 0.0, 1.613759447514118E9, 2021-02-19 16:30:47.514
67.0, -10606.349609375, 19341.1875, -13993.7333984375, 134557.078125, -187500.015625, -148009.25, -187500.015625, -187500.015625, -0.1380000114440918, -0.6320000290870667, 0.7720000147819519, 192.0, 251.0, 176.0, 236.0, 64.0, 24.0, 32.0, 0.0, 0.0, 0.0, 1.6137594475170827E9, 2021-02-19 16:30:47.517
68.0, -10936.126953125, 19511.126953125, -13829.671875, 134723.65625, -187500.015625, -149128.9375, -187500.015625, -187500.015625, -0.1380000114440918, -0.6320000290870667, 0.7720000147819519, 192.0, 0.0, 0.0, 0.0, 0.0, 0.0, 0.0, 0.0, 0.0, 0.0, 1.6137594475211077E9, 2021-02-19 16:30:47.521
69.0, -10794.39453125, 19466.447265625, -13873.1904296875, 134691.25, -187500.015625, -149570.625, -187500.015625, -187500.015625, -0.1380000114440918, -0.6320000290870667, 0.7720000147819519, 192.0, 0.0, 0.0, 0.0, 0.0, 0.0, 0.0, 0.0, 0.0, 0.0, 1.613759447524174E9, 2021-02-19 16:30:47.524
70.0, -10500.9833984375, 19292.884765625, -14044.0029296875, 134522.5, -187500.015625, -148334.46875, -187500.015625, -187500.015625, -0.1380000114440918, -0.6320000290870667, 0.7720000147819519, 192.0, 0.0, 0.0, 0.0, 0.0, 0.0, 0.0, 0.0, 0.0, 0.0, 1.6137594475271094E9, 2021-02-19 16:30:47.527
71.0, -10535.9189453125, 19276.791015625, -14062.1748046875, 134496.3125, -187500.015625, -147480.140625, -187500.015625, -187500.015625, -0.1380000114440918, -0.6320000290870667, 0.7720000147819519, 192.0, 0.0, 0.0, 0.0, 0.0, 0.0, 0.0, 0.0, 0.0, 0.0, 1.6137594475301275E9, 2021-02-19 16:30:47.530
72.0, -10878.90625, 19452.1640625, -13895.4306640625, 134665.921875, -187500.015625, -148398.25, -187500.015625, -187500.015625, -0.1380000114440918, -0.6320000290870667, 0.7720000147819519, 192.0, 0.0, 0.0, 0.0, 0.0, 0.0, 0.0, 0.0, 0.0, 0.0, 1.613759447534124E9, 2021-02-19 16:30:47.534
73.0, -10795.2216796875, 19505.115234375, -13841.40625, 134727.765625, -187500.015625, -149193.015625, -187500.015625, -187500.015625, -0.1380000114440918, -0.6320000290870667, 0.7720000147819519, 192.0, 0.0, 0.0, 0.0, 0.0, 0.0, 0.0, 0.0, 0.0, 0.0, 1.6137594475370948E9, 2021-02-19 16:30:47.537
74.0, -10440.65625, 19345.322265625, -13995.8125, 134573.4375, -187500.015625, -148363.078125, -187500.015625, -187500.015625, -0.1380000114440918, -0.6320000290870667, 0.7720000147819519, 192.0, 0.0, 0.0, 0.0, 0.0, 0.0, 0.0, 0.0, 0.0, 0.0, 1.6137594475402265E9, 2021-02-19 16:30:47.540
75.0, -10382.2734375, 19251.421875, -14091.791015625, 134471.578125, -187500.015625, -147203.3125, -187500.015625, -187500.015625, -0.1380000114440918, -0.6320000290870667, 0.7720000147819519, 192.0, 0.0, 0.0, 0.0, 0.0, 0.0, 0.0, 0.0, 0.0, 0.0, 1.613759447550202E9, 2021-02-19 16:30:47.550
76.0, -10728.1884765625, 19432.8515625, -13916.888671875, 134642.28125, -187500.015625, -147831.921875, -187500.015625, -187500.015625, -0.1380000114440918, -0.6320000290870667, 0.7720000147819519, 192.0, 0.0, 0.0, 0.0, 0.0, 0.0, 0.0, 0.0, 0.0, 0.0, 1.6137594475531533E9, 2021-02-19 16:30:47.553
77.0, -10731.5419921875, 19508.802734375, -13839.841796875, 134728.109375, -187500.015625, -148770.75, -187500.015625, -187500.015625, -0.14000000059604645, -0.6300000548362732, 0.7700000405311584, 192.0, 251.0, 160.0, 236.0, 80.0, 24.0, 16.0, 0.0, 0.0, 0.0, 1.6137594475572743E9, 2021-02-19 16:30:47.557
78.0, -10416.8740234375, 19327.462890625, -14012.8896484375, 134555.734375, -187500.015625, -147983.828125, -187500.015625, -187500.015625, -0.14000000059604645, -0.6300000548362732, 0.7700000405311584, 192.0, 0.0, 0.0, 0.0, 0.0, 0.0, 0.0, 0.0, 0.0, 0.0, 1.6137594475601068E9, 2021-02-19 16:30:47.560
79.0, -10281.064453125, 19239.888671875, -14097.9599609375, 134466.296875, -187500.015625, -146668.203125, -187500.015625, -187500.015625, -0.14000000059604645, -0.6300000548362732, 0.7700000405311584, 192.0, 0.0, 0.0, 0.0, 0.0, 0.0, 0.0, 0.0, 0.0, 0.0, 1.613759447563218E9, 2021-02-19 16:30:47.563
80.0, -10600.068359375, 19404.890625, -13942.1904296875, 134619.390625, -187500.015625, -146986.234375, -187500.015625, -187500.015625, -0.14000000059604645, -0.6300000548362732, 0.7700000405311584, 192.0, 0.0, 0.0, 0.0, 0.0, 0.0, 0.0, 0.0, 0.0, 0.0, 1.6137594475681973E9, 2021-02-19 16:30:47.568
81.0, -10715.42578125, 19495.81640625, -13854.03515625, 134717.484375, -187500.015625, -148038.65625, -187500.015625, -187500.015625, -0.14000000059604645, -0.6300000548362732, 0.7700000405311584, 192.0, 0.0, 0.0, 0.0, 0.0, 0.0, 0.0, 0.0, 0.0, 0.0, 1.613759447574204E9, 2021-02-19 16:30:47.574
82.0, -10451.8095703125, 19335.107421875, -14008.955078125, 134563.734375, -187500.015625, -147547.546875, -187500.015625, -187500.015625, -0.14000000059604645, -0.6300000548362732, 0.7700000405311584, 192.0, 0.0, 0.0, 0.0, 0.0, 0.0, 0.0, 0.0, 0.0, 0.0, 1.6137594475770943E9, 2021-02-19 16:30:47.577
83.0, -10282.361328125, 19172.611328125, -14168.9716796875, 134398.4375, -187500.015625, -146108.34375, -187500.015625, -187500.015625, -0.14000000059604645, -0.6300000548362732, 0.7700000405311584, 192.0, 0.0, 0.0, 0.0, 0.0, 0.0, 0.0, 0.0, 0.0, 0.0, 1.6137594475861924E9, 2021-02-19 16:30:47.586
84.0, -10582.544921875, 19297.892578125, -14050.41796875, 134512.234375, -187500.015625, -146065.15625, -187500.015625, -187500.015625, -0.14000000059604645, -0.6300000548362732, 0.7700000405311584, 192.0, 0.0, 0.0, 0.0, 0.0, 0.0, 0.0, 0.0, 0.0, 0.0, 1.613759447591154E9, 2021-02-19 16:30:47.591
85.0, -10794.685546875, 19475.208984375, -13875.8955078125, 134694.203125, -187500.015625, -147172.125, -187500.015625, -187500.015625, -0.14000000059604645, -0.6300000548362732, 0.7700000405311584, 192.0, 0.0, 0.0, 0.0, 0.0, 0.0, 0.0, 0.0, 0.0, 0.0, 1.6137594475962064E9, 2021-02-19 16:30:47.596
86.0, -10546.9833984375, 19394.072265625, -13953.6796875, 134625.625, -187500.015625, -147010.765625, -187500.015625, -187500.015625, -0.14000000059604645, -0.6300000548362732, 0.7700000405311584, 192.0, 0.0, 0.0, 0.0, 0.0, 0.0, 0.0, 0.0, 0.0, 0.0, 1.6137594476001592E9, 2021-02-19 16:30:47.600
87.0, -10307.1494140625, 19247.265625, -14096.1044921875, 134478.125, -187500.015625, -145563.203125, -187500.015625, -187500.015625, -0.1380000114440918, -0.6260000467300415, 0.7660000324249268, 192.0, 251.0, 176.0, 236.0, 112.0, 23.0, 240.0, 0.0, 0.0, 0.0, 1.61375944760319E9, 2021-02-19 16:30:47.603
88.0, -10514.1259765625, 19345.232421875, -14001.7802734375, 134564.25, -187500.015625, -145169.34375, -187500.015625, -187500.015625, -0.1380000114440918, -0.6260000467300415, 0.7660000324249268, 192.0, 0.0, 0.0, 0.0, 0.0, 0.0, 0.0, 0.0, 0.0, 0.0, 1.613759447606178E9, 2021-02-19 16:30:47.606
89.0, -10803.916015625, 19503.728515625, -13847.1064453125, 134723.640625, -187500.015625, -146226.3125, -187500.015625, -187500.015625, -0.1380000114440918, -0.6260000467300415, 0.7660000324249268, 192.0, 0.0, 0.0, 0.0, 0.0, 0.0, 0.0, 0.0, 0.0, 0.0, 1.6137594476091661E9, 2021-02-19 16:30:47.609
90.0, -10648.572265625, 19411.037109375, -13938.681640625, 134642.765625, -187500.015625, -146360.515625, -187500.015625, -187500.015625, -0.1380000114440918, -0.6260000467300415, 0.7660000324249268, 192.0, 0.0, 0.0, 0.0, 0.0, 0.0, 0.0, 0.0, 0.0, 0.0, 1.6137594476132357E9, 2021-02-19 16:30:47.613
91.0, -10404.267578125, 19241.185546875, -14105.89453125, 134476.15625, -187500.015625, -144927.296875, -187500.015625, -187500.015625, -0.1380000114440918, -0.6260000467300415, 0.7660000324249268, 192.0, 0.0, 0.0, 0.0, 0.0, 0.0, 0.0, 0.0, 0.0, 0.0, 1.6137594476162367E9, 2021-02-19 16:30:47.616
92.0, -10531.3369140625, 19259.3359375, -14091.232421875, 134481.75, -187500.015625, -144119.4375, -187500.015625, -187500.015625, -0.1380000114440918, -0.6260000467300415, 0.7660000324249268, 192.0, 0.0, 0.0, 0.0, 0.0, 0.0, 0.0, 0.0, 0.0, 0.0, 1.6137594476192973E9, 2021-02-19 16:30:47.619
93.0, -10893.2783203125, 19421.384765625, -13935.9541015625, 134639.140625, -187500.015625, -144929.9375, -187500.015625, -187500.015625, -0.1380000114440918, -0.6260000467300415, 0.7660000324249268, 192.0, 0.0, 0.0, 0.0, 0.0, 0.0, 0.0, 0.0, 0.0, 0.0, 1.6137594476622348E9, 2021-02-19 16:30:47.662
94.0, -10788.404296875, 19430.326171875, -13924.1748046875, 134657.046875, -187500.015625, -145338.84375, -187500.015625, -187500.015625, -0.1380000114440918, -0.6260000467300415, 0.7660000324249268, 192.0, 0.0, 0.0, 0.0, 0.0, 0.0, 0.0, 0.0, 0.0, 0.0, 1.6137594476832783E9, 2021-02-19 16:30:47.683
95.0, -10494.0986328125, 19258.240234375, -14093.0869140625, 134490.546875, -187500.015625, -144026.296875, -187500.015625, -187500.015625, -0.1380000114440918, -0.6260000467300415, 0.7660000324249268, 192.0, 0.0, 0.0, 0.0, 0.0, 0.0, 0.0, 0.0, 0.0, 0.0, 1.6137594477043102E9, 2021-02-19 16:30:47.704
96.0, -10523.2236328125, 19232.04296875, -14122.033203125, 134457.359375, -187500.015625, -142975.75, -187500.015625, -187500.015625, -0.14000000059604645, -0.6240000128746033, 0.7700000405311584, 192.0, 251.0, 160.0, 236.0, 128.0, 24.0, 16.0, 0.0, 0.0, 0.0, 1.6137594477073264E9, 2021-02-19 16:30:47.707
97.0, -10874.3916015625, 19419.0390625, -13943.666015625, 134637.09375, -187500.015625, -143833.5625, -187500.015625, -187500.015625, -0.14000000059604645, -0.6240000128746033, 0.7700000405311584, 192.0, 0.0, 0.0, 0.0, 0.0, 0.0, 0.0, 0.0, 0.0, 0.0, 1.6137594477104058E9, 2021-02-19 16:30:47.710
98.0, -10843.5908203125, 19446.21875, -13913.1337890625, 134673.703125, -187500.015625, -144426.890625, -187500.015625, -187500.015625, -0.14000000059604645, -0.6240000128746033, 0.7700000405311584, 192.0, 0.0, 0.0, 0.0, 0.0, 0.0, 0.0, 0.0, 0.0, 0.0, 1.6137594477143471E9, 2021-02-19 16:30:47.714
99.0, -10548.5029296875, 19264.431640625, -14090.494140625, 134499.46875, -187500.015625, -143282.25, -187500.015625, -187500.015625, -0.14000000059604645, -0.6240000128746033, 0.7700000405311584, 192.0, 0.0, 0.0, 0.0, 0.0, 0.0, 0.0, 0.0, 0.0, 0.0, 1.6137594477382846E9, 2021-02-19 16:30:47.738
100.0, -10491.4169921875, 19165.4140625, -14190.294921875, 134397.078125, -187500.015625, -141920.671875, -187500.015625, -187500.015625, -0.14000000059604645, -0.6240000128746033, 0.7700000405311584, 192.0, 0.0, 0.0, 0.0, 0.0, 0.0, 0.0, 0.0, 0.0, 0.0, 1.6137594477583764E9, 2021-02-19 16:30:47.758
101.0, -10846.7197265625, 19362.623046875, -13996.974609375, 134585.09375, -187500.015625, -142298.046875, -187500.015625, -187500.015625, -0.14000000059604645, -0.6240000128746033, 0.7700000405311584, 192.0, 0.0, 0.0, 0.0, 0.0, 0.0, 0.0, 0.0, 0.0, 0.0, 1.6137594477843804E9, 2021-02-19 16:30:47.784
102.0, -10881.857421875, 19459.62890625, -13899.119140625, 134688.71875, -187500.015625, -143102.65625, -187500.015625, -187500.015625, -0.14000000059604645, -0.6240000128746033, 0.7700000405311584, 192.0, 0.0, 0.0, 0.0, 0.0, 0.0, 0.0, 0.0, 0.0, 0.0, 1.6137594478054037E9, 2021-02-19 16:30:47.805
103.0, -10568.8212890625, 19319.931640625, -14032.693359375, 134557.90625, -187500.015625, -142232.5, -187500.015625, -187500.015625, -0.14000000059604645, -0.6240000128746033, 0.7700000405311584, 192.0, 0.0, 0.0, 0.0, 0.0, 0.0, 0.0, 0.0, 0.0, 0.0, 1.613759447889708E9, 2021-02-19 16:30:47.889
104.0, -10411.1513671875, 19174.890625, -14175.0068359375, 134414.359375, -187500.015625, -140697.5625, -187500.015625, -187500.015625, -0.14000000059604645, -0.6240000128746033, 0.7700000405311584, 192.0, 0.0, 0.0, 0.0, 0.0, 0.0, 0.0, 0.0, 0.0, 0.0, 1.613759447893468E9, 2021-02-19 16:30:47.893
105.0, -10738.3583984375, 19302.33984375, -14053.79296875, 134529.765625, -187500.015625, -140762.34375, -187500.015625, -187500.015625, -0.14000000059604645, -0.6240000128746033, 0.7700000405311584, 192.0, 0.0, 0.0, 0.0, 0.0, 0.0, 0.0, 0.0, 0.0, 0.0, 1.6137594478975809E9, 2021-02-19 16:30:47.897
106.0, -10886.4619140625, 19405.091796875, -13952.9638671875, 134636.171875, -187500.015625, -141691.078125, -187500.015625, -187500.015625, -0.1380000114440918, -0.6240000128746033, 0.7720000147819519, 192.0, 251.0, 176.0, 236.0, 128.0, 24.0, 32.0, 0.0, 0.0, 0.0, 1.6137594479014747E9, 2021-02-19 16:30:47.901
182.0, -10430.083984375, 19227.037109375, -14114.142578125, 134472.0, -187500.015625, -87335.3515625, -187500.015625, -187500.015625, -0.1380000114440918, -0.6240000128746033, 0.7720000147819519, 192.0, 0.0, 0.0, 0.0, 0.0, 0.0, 0.0, 0.0, 0.0, 0.0, 1.6137594479225967E9, 2021-02-19 16:30:47.922
108.0, -10367.2080078125, 19211.5703125, -14140.71875, 134455.328125, -187500.015625, -139621.859375, -187500.015625, -187500.015625, -0.1380000114440918, -0.6240000128746033, 0.7720000147819519, 192.0, 0.0, 0.0, 0.0, 0.0, 0.0, 0.0, 0.0, 0.0, 0.0, 1.6137594479725637E9, 2021-02-19 16:30:47.972
109.0, -10633.373046875, 19262.912109375, -14094.8310546875, 134492.703125, -187500.015625, -139376.359375, -187500.015625, -187500.015625, -0.1380000114440918, -0.6240000128746033, 0.7720000147819519, 192.0, 0.0, 0.0, 0.0, 0.0, 0.0, 0.0, 0.0, 0.0, 0.0, 1.613759447993634E9, 2021-02-19 16:30:47.993
110.0, -10859.37109375, 19445.525390625, -13914.228515625, 134673.125, -187500.015625, -140382.96875, -187500.015625, -187500.015625, -0.1380000114440918, -0.6240000128746033, 0.7720000147819519, 192.0, 0.0, 0.0, 0.0, 0.0, 0.0, 0.0, 0.0, 0.0, 0.0, 1.6137594480526178E9, 2021-02-19 16:30:48.052
180.0, -10529.1015625, 19088.544921875, -14252.5, 134322.15625, -187500.015625, -86314.921875, -187500.015625, -187500.015625, -0.1380000114440918, -0.6240000128746033, 0.7720000147819519, 192.0, 0.0, 0.0, 0.0, 0.0, 0.0, 0.0, 0.0, 0.0, 0.0, 1.613759448055766E9, 2021-02-19 16:30:48.055
112.0, -10347.3369140625, 19128.64453125, -14224.560546875, 134370.0625, -187500.015625, -138668.59375, -187500.015625, -187500.015625, -0.1380000114440918, -0.6240000128746033, 0.7720000147819519, 192.0, 0.0, 0.0, 0.0, 0.0, 0.0, 0.0, 0.0, 0.0, 0.0, 1.6137594480607743E9, 2021-02-19 16:30:48.060
178.0, -10638.357421875, 19030.54296875, -14309.4521484375, 134274.921875, -187500.015625, -87610.0546875, -187500.015625, -187500.015625, -0.1380000114440918, -0.6240000128746033, 0.7720000147819519, 192.0, 0.0, 0.0, 0.0, 0.0, 0.0, 0.0, 0.0, 0.0, 0.0, 1.6137594480866857E9, 2021-02-19 16:30:48.086
114.0, -10757.7158203125, 19385.5546875, -13974.734375, 134612.890625, -187500.015625, -138998.875, -187500.015625, -187500.015625, -0.1380000114440918, -0.6240000128746033, 0.7720000147819519, 192.0, 0.0, 0.0, 0.0, 0.0, 0.0, 0.0, 0.0, 0.0, 0.0, 1.61375944809071E9, 2021-02-19 16:30:48.090
115.0, -10562.40625, 19321.541015625, -14035.8896484375, 134561.359375, -187500.015625, -139091.640625, -187500.015625, -187500.015625, -0.1380000114440918, -0.6240000128746033, 0.7720000147819519, 192.0, 0.0, 0.0, 0.0, 0.0, 0.0, 0.0, 0.0, 0.0, 0.0, 1.6137594481448119E9, 2021-02-19 16:30:48.144
176.0, -10954.4111328125, 18823.990234375, -14519.06640625, 134052.4375, -187500.015625, -86830.7578125, -187500.015625, -187500.015625, -0.1380000114440918, -0.6240000128746033, 0.7720000147819519, 192.0, 0.0, 0.0, 0.0, 0.0, 0.0, 0.0, 0.0, 0.0, 0.0, 1.613759448237878E9, 2021-02-19 16:30:48.237
174.0, -11012.5927734375, 18573.29296875, -14764.7568359375, 133818.0625, -187500.015625, -89123.6015625, -187500.015625, -187500.015625, -0.1380000114440918, -0.6240000128746033, 0.7720000147819519, 192.0, 0.0, 0.0, 0.0, 0.0, 0.0, 0.0, 0.0, 0.0, 0.0, 1.613759448242141E9, 2021-02-19 16:30:48.242
134.0, -10501.251953125, 19217.08984375, -14141.478515625, 134453.203125, -187500.015625, -131917.0625, -187500.015625, -187500.015625, -0.1380000114440918, -0.6240000128746033, 0.7720000147819519, 192.0, 0.0, 0.0, 0.0, 0.0, 0.0, 0.0, 0.0, 0.0, 0.0, 1.6137594482630656E9, 2021-02-19 16:30:48.263
129.0, -10339.201171875, 19146.302734375, -14207.9306640625, 134394.796875, -187500.015625, -133308.796875, -187500.015625, -187500.015625, -0.1380000114440918, -0.6240000128746033, 0.7720000147819519, 192.0, 0.0, 0.0, 0.0, 0.0, 0.0, 0.0, 0.0, 0.0, 0.0, 1.6137594482669663E9, 2021-02-19 16:30:48.266
250.0, -11006.6689453125, 18648.6640625, -14705.3017578125, 133910.03125, -187500.015625, -13666.2587890625, -187500.015625, -187500.015625, -0.1380000114440918, -0.6240000128746033, 0.7720000147819519, 192.0, 0.0, 0.0, 0.0, 0.0, 0.0, 0.0, 0.0, 0.0, 0.0, 1.613759448270982E9, 2021-02-19 16:30:48.270
248.0, -11457.3916015625, 18915.564453125, -14446.53515625, 134167.4375, -187500.015625, -18359.744140625, -187500.015625, -187500.015625, -0.1380000114440918, -0.6240000128746033, 0.7720000147819519, 192.0, 0.0, 0.0, 0.0, 0.0, 0.0, 0.0, 0.0, 0.0, 0.0, 1.6137594482919197E9, 2021-02-19 16:30:48.291
201.0, -10821.5966796875, 19056.0234375, -14295.2587890625, 134287.28125, -187500.015625, -73259.5625, -187500.015625, -187500.015625, -0.1380000114440918, -0.6240000128746033, 0.7720000147819519, 192.0, 0.0, 0.0, 0.0, 0.0, 0.0, 0.0, 0.0, 0.0, 0.0, 1.6137594483129876E9, 2021-02-19 16:30:48.312
219.0, -10944.5087890625, 19116.015625, -14248.4765625, 134350.59375, -187500.015625, -57360.25, -187500.015625, -187500.015625, -0.1380000114440918, -0.6240000128746033, 0.7720000147819519, 192.0, 0.0, 0.0, 0.0, 0.0, 0.0, 0.0, 0.0, 0.0, 0.0, 1.6137594483380933E9, 2021-02-19 16:30:48.338
246.0, -10971.8896484375, 18639.41015625, -14716.41015625, 133897.359375, -187500.015625, -19628.65234375, -187500.015625, -187500.015625, -0.1380000114440918, -0.6240000128746033, 0.7720000147819519, 192.0, 0.0, 0.0, 0.0, 0.0, 0.0, 0.0, 0.0, 0.0, 0.0, 1.6137594483430035E9, 2021-02-19 16:30:48.343
199.0, -10608.6064453125, 18984.453125, -14358.9169921875, 134229.328125, -187500.015625, -75485.4140625, -187500.015625, -187500.015625, -0.1380000114440918, -0.6240000128746033, 0.7720000147819519, 192.0, 0.0, 0.0, 0.0, 0.0, 0.0, 0.0, 0.0, 0.0, 0.0, 1.6137594483471427E9, 2021-02-19 16:30:48.347
8.0, -11354.126953125, 19302.98828125, -14060.431640625, 134564.453125, -187500.015625, 15982.9267578125, -187500.015625, -187500.015625, -0.12000000476837158, -0.6580000519752502, 0.7420000433921814, 192.0, 252.0, 64.0, 235.0, 112.0, 23.0, 48.0, 0.0, 0.0, 0.0, 1.6137594483921287E9, 2021-02-19 16:30:48.392
217.0, -10554.0908203125, 18900.052734375, -14456.794921875, 134137.328125, -187500.015625, -57618.68359375, -187500.015625, -187500.015625, -0.12000000476837158, -0.6580000519752502, 0.7420000433921814, 192.0, 0.0, 0.0, 0.0, 0.0, 0.0, 0.0, 0.0, 0.0, 0.0, 1.613759448395342E9, 2021-02-19 16:30:48.395
6.0, -11624.0693359375, 18631.943359375, -14723.6748046875, 133904.015625, -187500.015625, 20564.119140625, -187500.015625, -187500.015625, -0.12000000476837158, -0.6580000519752502, 0.7420000433921814, 192.0, 0.0, 0.0, 0.0, 0.0, 0.0, 0.0, 0.0, 0.0, 0.0, 1.61375944839814E9, 2021-02-19 16:30:48.398
157.0, -10589.943359375, 19172.38671875, -14170.0224609375, 134421.171875, -187500.015625, -119457.4609375, -187500.015625, -187500.015625, -0.12000000476837158, -0.6580000519752502, 0.7420000433921814, 192.0, 0.0, 0.0, 0.0, 0.0, 0.0, 0.0, 0.0, 0.0, 0.0, 1.613759448402058E9, 2021-02-19 16:30:48.402
242.0, -10915.5185546875, 18658.51953125, -14693.09765625, 133908.6875, -187500.015625, -26027.666015625, -187500.015625, -187500.015625, -0.12000000476837158, -0.6580000519752502, 0.7420000433921814, 192.0, 0.0, 0.0, 0.0, 0.0, 0.0, 0.0, 0.0, 0.0, 0.0, 1.613759448406072E9, 2021-02-19 16:30:48.406
4.0, -12191.0654296875, 17572.427734375, -15784.376953125, 132831.421875, -187500.015625, 23153.34375, -187500.015625, -187500.015625, -0.12000000476837158, -0.6580000519752502, 0.7420000433921814, 192.0, 0.0, 0.0, 0.0, 0.0, 0.0, 0.0, 0.0, 0.0, 0.0, 1.613759448410333E9, 2021-02-19 16:30:48.410
232.0, -10844.5966796875, 19051.708984375, -14309.5419921875, 134296.109375, -187500.015625, -42577.8828125, -187500.015625, -187500.015625, -0.12000000476837158, -0.6580000519752502, 0.7420000433921814, 192.0, 0.0, 0.0, 0.0, 0.0, 0.0, 0.0, 0.0, 0.0, 0.0, 1.6137594484311E9, 2021-02-19 16:30:48.431
2.0, -11293.576171875, 17942.34765625, -15402.9892578125, 133227.8125, -187500.015625, 8506.984375, -187500.015625, -187500.015625, -0.12000000476837158, -0.6580000519752502, 0.7420000433921814, 192.0, 0.0, 0.0, 0.0, 0.0, 0.0, 0.0, 0.0, 0.0, 0.0, 1.6137594484350946E9, 2021-02-19 16:30:48.435
213.0, -10614.91015625, 18884.1171875, -14470.7646484375, 134114.4375, -187500.015625, -62104.296875, -187500.015625, -187500.015625, -0.12000000476837158, -0.6580000519752502, 0.7420000433921814, 192.0, 0.0, 0.0, 0.0, 0.0, 0.0, 0.0, 0.0, 0.0, 0.0, 1.613759448439208E9, 2021-02-19 16:30:48.439
238.0, -10888.271484375, 18754.990234375, -14601.0302734375, 134000.515625, -187500.015625, -32761.978515625, -187500.015625, -187500.015625, -0.12000000476837158, -0.6580000519752502, 0.7420000433921814, 192.0, 0.0, 0.0, 0.0, 0.0, 0.0, 0.0, 0.0, 0.0, 0.0, 1.6137594484433303E9, 2021-02-19 16:30:48.443
21.0, -10702.037109375, 19729.705078125, -13633.7587890625, 135008.375, -187500.015625, 6098.3828125, -187500.015625, -187500.015625, -0.12000000476837158, -0.6580000519752502, 0.7420000433921814, 192.0, 0.0, 0.0, 0.0, 0.0, 0.0, 0.0, 0.0, 0.0, 0.0, 1.6137594484641976E9, 2021-02-19 16:30:48.464
228.0, -10798.1494140625, 18973.412109375, -14385.7607421875, 134216.65625, -187500.015625, -47579.375, -187500.015625, -187500.015625, -0.12000000476837158, -0.6580000519752502, 0.7420000433921814, 192.0, 0.0, 0.0, 0.0, 0.0, 0.0, 0.0, 0.0, 0.0, 0.0, 1.6137594484681482E9, 2021-02-19 16:30:48.468
236.0, -11062.146484375, 18962.056640625, -14397.2724609375, 134210.3125, -187500.015625, -37458.99609375, -187500.015625, -187500.015625, -0.12000000476837158, -0.6580000519752502, 0.7420000433921814, 192.0, 0.0, 0.0, 0.0, 0.0, 0.0, 0.0, 0.0, 0.0, 0.0, 1.613759448473255E9, 2021-02-19 16:30:48.473
53.0, -9741.001953125, 20275.958984375, -13088.9580078125, 135599.890625, -187500.015625, -53672.7734375, -187500.015625, -187500.015625, -0.12000000476837158, -0.6580000519752502, 0.7420000433921814, 192.0, 0.0, 0.0, 0.0, 0.0, 0.0, 0.0, 0.0, 0.0, 0.0, 1.613759448478151E9, 2021-02-19 16:30:48.478
40.0, -9754.0107421875, 20026.134765625, -13322.98046875, 135347.78125, -187500.015625, -22369.8046875, -187500.015625, -187500.015625, -0.12000000476837158, -0.6580000519752502, 0.7420000433921814, 192.0, 0.0, 0.0, 0.0, 0.0, 0.0, 0.0, 0.0, 0.0, 0.0, 1.6137594484822297E9, 2021-02-19 16:30:48.482
254.0, -11066.4599609375, 18540.927734375, -14810.3544921875, 133810.078125, -187500.015625, -5937.33837890625, -187500.015625, -187500.015625, -0.11000000685453415, -0.6620000600814819, 0.7420000433921814, 192.0, 252.0, 144.0, 235.0, 80.0, 23.0, 48.0, 0.0, 0.0, 0.0, 1.613759448486178E9, 2021-02-19 16:30:48.486
51.0, -10051.9365234375, 20430.431640625, -12933.724609375, 135760.796875, -187500.015625, -50238.5625, -187500.015625, -187500.015625, -0.11000000685453415, -0.6620000600814819, 0.7420000433921814, 192.0, 0.0, 0.0, 0.0, 0.0, 0.0, 0.0, 0.0, 0.0, 0.0, 1.6137594484891696E9, 2021-02-19 16:30:48.489
9.0, -11112.52734375, 19434.39453125, -13928.578125, 134705.84375, -187500.015625, 13638.8779296875, -187500.015625, -187500.015625, -0.11000000685453415, -0.6620000600814819, 0.7420000433921814, 192.0, 0.0, 0.0, 0.0, 0.0, 0.0, 0.0, 0.0, 0.0, 0.0, 1.613759448494393E9, 2021-02-19 16:30:48.494
33.0, -10308.1103515625, 20047.591796875, -13311.40234375, 135348.875, -187500.015625, -9179.5927734375, -187500.015625, -187500.015625, -0.11000000685453415, -0.6620000600814819, 0.7420000433921814, 192.0, 0.0, 0.0, 0.0, 0.0, 0.0, 0.0, 0.0, 0.0, 0.0, 1.6137594485151856E9, 2021-02-19 16:30:48.515
49.0, -9914.607421875, 20234.541015625, -13127.8720703125, 135557.453125, -187500.015625, -43404.31640625, -187500.015625, -187500.015625, -0.11000000685453415, -0.6620000600814819, 0.7420000433921814, 192.0, 0.0, 0.0, 0.0, 0.0, 0.0, 0.0, 0.0, 0.0, 0.0, 1.613759448520216E9, 2021-02-19 16:30:48.520
38.0, -10163.1591796875, 20225.265625, -13132.38671875, 135538.375, -187500.015625, -19736.9921875, -187500.015625, -187500.015625, -0.11000000685453415, -0.6620000600814819, 0.7420000433921814, 192.0, 0.0, 0.0, 0.0, 0.0, 0.0, 0.0, 0.0, 0.0, 0.0, 1.6137594485243402E9, 2021-02-19 16:30:48.524
36.0, -9760.8720703125, 19939.1640625, -13410.419921875, 135254.84375, -187500.015625, -13944.716796875, -187500.015625, -187500.015625, -0.11000000685453415, -0.6620000600814819, 0.7420000433921814, 192.0, 0.0, 0.0, 0.0, 0.0, 0.0, 0.0, 0.0, 0.0, 0.0, 1.6137594485452359E9, 2021-02-19 16:30:48.545
47.0, -9999.857421875, 20333.203125, -13029.5693359375, 135658.65625, -187500.015625, -39820.99609375, -187500.015625, -187500.015625, -0.11400000751018524, -0.6980000138282776, 0.7300000190734863, 192.0, 252.0, 112.0, 234.0, 48.0, 22.0, 208.0, 0.0, 0.0, 0.0, 1.6137594485953455E9, 2021-02-19 16:30:48.595
29.0, -10320.58203125, 19943.25390625, -13422.400390625, 135234.9375, -187500.015625, -2937.3095703125, -187500.015625, -187500.015625, -0.11400000751018524, -0.6980000138282776, 0.7300000190734863, 192.0, 0.0, 0.0, 0.0, 0.0, 0.0, 0.0, 0.0, 0.0, 0.0, 1.6137594486103315E9, 2021-02-19 16:30:48.610
34.0, -10260.7470703125, 20139.412109375, -13214.8203125, 135447.90625, -187500.015625, -11960.1494140625, -187500.015625, -187500.015625, -0.11400000751018524, -0.6980000138282776, 0.7300000190734863, 192.0, 0.0, 0.0, 0.0, 0.0, 0.0, 0.0, 0.0, 0.0, 0.0, 1.613759448615371E9, 2021-02-19 16:30:48.615
45.0, -9949.0517578125, 20187.71484375, -13171.94921875, 135499.9375, -187500.015625, -33553.765625, -187500.015625, -187500.015625, -0.11400000751018524, -0.6980000138282776, 0.7300000190734863, 192.0, 0.0, 0.0, 0.0, 0.0, 0.0, 0.0, 0.0, 0.0, 0.0, 1.6137594486373384E9, 2021-02-19 16:30:48.637
42.0, -10250.8896484375, 20277.79296875, -13080.7763671875, 135590.953125, -187500.015625, -28244.625, -187500.015625, -187500.015625, -0.11400000751018524, -0.6980000138282776, 0.7300000190734863, 192.0, 0.0, 0.0, 0.0, 0.0, 0.0, 0.0, 0.0, 0.0, 0.0, 1.6137594486413631E9, 2021-02-19 16:30:48.641
63.0, -10120.7353515625, 20467.783203125, -12906.5, 135797.96875, -187500.015625, -79816.0, -187500.015625, -187500.015625, -0.11400000751018524, -0.6980000138282776, 0.7300000190734863, 192.0, 0.0, 0.0, 0.0, 0.0, 0.0, 0.0, 0.0, 0.0, 0.0, 1.6137594486625051E9, 2021-02-19 16:30:48.662
54.0, -10077.283203125, 20424.46484375, -12945.951171875, 135740.328125, -187500.015625, -57262.57421875, -187500.015625, -187500.015625, -0.11400000751018524, -0.6980000138282776, 0.7300000190734863, 192.0, 0.0, 0.0, 0.0, 0.0, 0.0, 0.0, 0.0, 0.0, 0.0, 1.6137594486823912E9, 2021-02-19 16:30:48.682
55.0, -10025.673828125, 20442.525390625, -12924.60546875, 135769.90625, -187500.015625, -60645.69140625, -187500.015625, -187500.015625, -0.11400000751018524, -0.6980000138282776, 0.7300000190734863, 192.0, 0.0, 0.0, 0.0, 0.0, 0.0, 0.0, 0.0, 0.0, 0.0, 1.613759448703492E9, 2021-02-19 16:30:48.703
61.0, -9682.1494140625, 20231.837890625, -13131.470703125, 135568.515625, -187500.015625, -73551.7421875, -187500.015625, -187500.015625, -0.11400000751018524, -0.6980000138282776, 0.7300000190734863, 192.0, 0.0, 0.0, 0.0, 0.0, 0.0, 0.0, 0.0, 0.0, 0.0, 1.613759448729494E9, 2021-02-19 16:30:48.729
57.0, -9702.1767578125, 20276.607421875, -13086.7001953125, 135605.5, -187500.015625, -63945.8125, -187500.015625, -187500.015625, -0.1120000034570694, -0.690000057220459, 0.7240000367164612, 192.0, 252.0, 128.0, 234.0, 112.0, 22.0, 160.0, 0.0, 0.0, 0.0, 1.6137594487544663E9, 2021-02-19 16:30:48.754
71.0, -10145.8359375, 20374.59765625, -13007.10546875, 135707.78125, -187500.015625, -96714.5859375, -187500.015625, -187500.015625, -0.1120000034570694, -0.690000057220459, 0.7240000367164612, 192.0, 0.0, 0.0, 0.0, 0.0, 0.0, 0.0, 0.0, 0.0, 0.0, 1.6137594487796466E9, 2021-02-19 16:30:48.779
59.0, -10067.9853515625, 20483.47265625, -12887.76953125, 135814.171875, -187500.015625, -70616.5546875, -187500.015625, -187500.015625, -0.1120000034570694, -0.690000057220459, 0.7240000367164612, 192.0, 0.0, 0.0, 0.0, 0.0, 0.0, 0.0, 0.0, 0.0, 0.0, 1.6137594487835815E9, 2021-02-19 16:30:48.783
104.0, -10625.884765625, 19855.009765625, -13512.43359375, 135253.265625, -187500.015625, -147165.53125, -187500.015625, -187500.015625, -0.1120000034570694, -0.690000057220459, 0.7240000367164612, 192.0, 0.0, 0.0, 0.0, 0.0, 0.0, 0.0, 0.0, 0.0, 0.0, 1.6137594487875118E9, 2021-02-19 16:30:48.787
69.0, -9654.388671875, 20187.625, -13183.7509765625, 135532.96875, -187500.015625, -91456.8984375, -187500.015625, -187500.015625, -0.1120000034570694, -0.690000057220459, 0.7240000367164612, 192.0, 0.0, 0.0, 0.0, 0.0, 0.0, 0.0, 0.0, 0.0, 0.0, 1.6137594488055463E9, 2021-02-19 16:30:48.805
102.0, -10091.1865234375, 19701.67578125, -13654.9931640625, 135113.265625, -187500.015625, -145731.3125, -187500.015625, -187500.015625, -0.1120000034570694, -0.690000057220459, 0.7240000367164612, 192.0, 0.0, 0.0, 0.0, 0.0, 0.0, 0.0, 0.0, 0.0, 0.0, 1.6137594488928013E9, 2021-02-19 16:30:48.892
67.0, -10154.53125, 20401.978515625, -12977.3330078125, 135732.4375, -187500.015625, -88559.109375, -187500.015625, -187500.015625, -0.1300000101327896, -0.6760000586509705, 0.7120000123977661, 192.0, 251.0, 240.0, 234.0, 224.0, 22.0, 64.0, 0.0, 0.0, 0.0, 1.6137594488976617E9, 2021-02-19 16:30:48.897
100.0, -10312.3564453125, 19964.421875, -13404.408203125, 135352.234375, -187500.015625, -144382.578125, -187500.015625, -187500.015625, -0.1300000101327896, -0.6760000586509705, 0.7120000123977661, 192.0, 0.0, 0.0, 0.0, 0.0, 0.0, 0.0, 0.0, 0.0, 0.0, 1.6137594489186523E9, 2021-02-19 16:30:48.918
73.0, -9676.78515625, 20129.287109375, -13242.6923828125, 135483.734375, -187500.015625, -99612.15625, -187500.015625, -187500.015625, -0.1300000101327896, -0.6760000586509705, 0.7120000123977661, 192.0, 0.0, 0.0, 0.0, 0.0, 0.0, 0.0, 0.0, 0.0, 0.0, 1.6137594489687583E9, 2021-02-19 16:30:48.968
83.0, -10140.896484375, 20266.416015625, -13113.611328125, 135618.953125, -187500.015625, -119337.6171875, -187500.015625, -187500.015625, -0.1300000101327896, -0.6760000586509705, 0.7120000123977661, 192.0, 0.0, 0.0, 0.0, 0.0, 0.0, 0.0, 0.0, 0.0, 0.0, 1.613759448972768E9, 2021-02-19 16:30:48.972
98.0, -9815.6787109375, 19782.92578125, -13579.51171875, 135178.203125, -187500.015625, -141961.5625, -187500.015625, -187500.015625, -0.1300000101327896, -0.6760000586509705, 0.7120000123977661, 192.0, 0.0, 0.0, 0.0, 0.0, 0.0, 0.0, 0.0, 0.0, 0.0, 1.6137594489938145E9, 2021-02-19 16:30:48.993
177.0, -10938.98828125, 19217.828125, -14168.546875, 134708.609375, -187500.015625, -99241.09375, -187500.015625, -187500.015625, -0.1300000101327896, -0.6760000586509705, 0.7120000123977661, 192.0, 0.0, 0.0, 0.0, 0.0, 0.0, 0.0, 0.0, 0.0, 0.0, 1.6137594490147576E9, 2021-02-19 16:30:49.014
81.0, -9841.4951171875, 20137.826171875, -13235.3837890625, 135508.40625, -187500.015625, -115705.5703125, -187500.015625, -187500.015625, -0.1300000101327896, -0.6760000586509705, 0.7120000123977661, 192.0, 0.0, 0.0, 0.0, 0.0, 0.0, 0.0, 0.0, 0.0, 0.0, 1.6137594490188737E9, 2021-02-19 16:30:49.018
175.0, -11308.4619140625, 19348.09375, -14047.7578125, 134815.75, -187500.015625, -100054.5859375, -187500.015625, -187500.015625, -0.1120000034570694, -0.6360000371932983, 0.7720000147819519, 192.0, 252.0, 128.0, 236.0, 32.0, 24.0, 32.0, 0.0, 0.0, 0.0, 1.6137594490448768E9, 2021-02-19 16:30:49.044
96.0, -10133.095703125, 20089.814453125, -13281.4287109375, 135466.359375, -187500.015625, -140699.71875, -187500.015625, -187500.015625, -0.12600000202655792, -0.6600000262260437, 0.7560000419616699, 192.0, 252.0, 16.0, 235.0, 96.0, 23.0, 160.0, 0.0, 0.0, 0.0, 1.6137594491951013E9, 2021-02-19 16:30:49.195
88.0, -10174.759765625, 20271.265625, -13106.3916015625, 135634.25, -187500.015625, -129335.6796875, -187500.015625, -187500.015625, -0.12600000202655792, -0.6600000262260437, 0.7560000419616699, 192.0, 0.0, 0.0, 0.0, 0.0, 0.0, 0.0, 0.0, 0.0, 0.0, 1.6137594492500849E9, 2021-02-19 16:30:49.250
94.0, -9609.4619140625, 19959.2578125, -13407.24609375, 135344.078125, -187500.015625, -137456.34375, -187500.015625, -187500.015625, -0.12600000202655792, -0.6600000262260437, 0.7560000419616699, 192.0, 0.0, 0.0, 0.0, 0.0, 0.0, 0.0, 0.0, 0.0, 0.0, 1.613759449271099E9, 2021-02-19 16:30:49.271
173.0, -11112.99609375, 19203.076171875, -14187.03125, 134675.578125, -187500.015625, -100863.09375, -187500.015625, -187500.015625, -0.12600000202655792, -0.6600000262260437, 0.7560000419616699, 192.0, 0.0, 0.0, 0.0, 0.0, 0.0, 0.0, 0.0, 0.0, 0.0, 1.613759449297243E9, 2021-02-19 16:30:49.297
239.0, -10312.3564453125, 19888.380859375, -13504.7451171875, 135397.046875, -187500.015625, -130669.609375, -187500.015625, -187500.015625, -0.12600000202655792, -0.6600000262260437, 0.7560000419616699, 192.0, 0.0, 0.0, 0.0, 0.0, 0.0, 0.0, 0.0, 0.0, 0.0, 1.6137594493181581E9, 2021-02-19 16:30:49.318
171.0, -11460.38671875, 19329.36328125, -14065.7958984375, 134787.203125, -187500.015625, -102240.0703125, -187500.015625, -187500.015625, -0.12600000202655792, -0.6600000262260437, 0.7560000419616699, 192.0, 0.0, 0.0, 0.0, 0.0, 0.0, 0.0, 0.0, 0.0, 0.0, 1.6137594493392775E9, 2021-02-19 16:30:49.339
237.0, -10198.51953125, 19785.763671875, -13604.9248046875, 135284.359375, -187500.015625, -127265.8203125, -187500.015625, -187500.015625, -0.12600000202655792, -0.6600000262260437, 0.7560000419616699, 192.0, 0.0, 0.0, 0.0, 0.0, 0.0, 0.0, 0.0, 0.0, 0.0, 1.6137594493461945E9, 2021-02-19 16:30:49.346
235.0, -10138.28125, 19761.82421875, -13629.4228515625, 135269.578125, -187500.015625, -126064.328125, -187500.015625, -187500.015625, -0.12600000202655792, -0.6600000262260437, 0.7560000419616699, 192.0, 0.0, 0.0, 0.0, 0.0, 0.0, 0.0, 0.0, 0.0, 0.0, 1.6137594493492181E9, 2021-02-19 16:30:49.349
197.0, -10513.9697265625, 19626.1953125, -13770.931640625, 135120.6875, -187500.015625, -97642.671875, -187500.015625, -187500.015625, -0.12600000202655792, -0.6600000262260437, 0.7560000419616699, 192.0, 0.0, 0.0, 0.0, 0.0, 0.0, 0.0, 0.0, 0.0, 0.0, 1.6137594493523574E9, 2021-02-19 16:30:49.352
254.0, -10007.1435546875, 19585.759765625, -13811.25390625, 135086.765625, -187500.015625, -140913.703125, -187500.015625, -187500.015625, -0.10600000619888306, -0.6060000061988831, 0.7640000581741333, 192.0, 252.0, 176.0, 237.0, 16.0, 23.0, 224.0, 0.0, 0.0, 0.0, 1.6137594494013305E9, 2021-02-19 16:30:49.401
195.0, -10276.125, 19449.99609375, -13939.0166015625, 134941.703125, -187500.015625, -95852.125, -187500.015625, -187500.015625, -0.12800000607967377, -0.6460000276565552, 0.7720000147819519, 192.0, 252.0, 0.0, 235.0, 208.0, 24.0, 32.0, 0.0, 0.0, 0.0, 1.6137594494132905E9, 2021-02-19 16:30:49.413
192.0, -10582.65625, 19454.533203125, -13938.681640625, 134943.59375, -187500.015625, -96231.8359375, -187500.015625, -187500.015625, -0.12800000607967377, -0.6460000276565552, 0.7720000147819519, 192.0, 0.0, 0.0, 0.0, 0.0, 0.0, 0.0, 0.0, 0.0, 0.0, 1.613759449433392E9, 2021-02-19 16:30:49.433
252.0, -9835.728515625, 19642.9140625, -13748.7587890625, 135154.359375, -187500.015625, -141784.234375, -187500.015625, -187500.015625, -0.12800000607967377, -0.6460000276565552, 0.7720000147819519, 192.0, 0.0, 0.0, 0.0, 0.0, 0.0, 0.0, 0.0, 0.0, 0.0, 1.6137594494362817E9, 2021-02-19 16:30:49.436
162.0, -10474.5185546875, 19192.97265625, -14203.7734375, 134637.671875, -187500.015625, -106801.8203125, -187500.015625, -187500.015625, -0.12800000607967377, -0.6460000276565552, 0.7720000147819519, 192.0, 0.0, 0.0, 0.0, 0.0, 0.0, 0.0, 0.0, 0.0, 0.0, 1.6137594494403524E9, 2021-02-19 16:30:49.440
12.0, -10136.7841796875, 19926.7578125, -13470.859375, 135435.34375, -187500.015625, -151453.46875, -187500.015625, -187500.015625, -0.12800000607967377, -0.6460000276565552, 0.7720000147819519, 192.0, 0.0, 0.0, 0.0, 0.0, 0.0, 0.0, 0.0, 0.0, 0.0, 1.6137594494443672E9, 2021-02-19 16:30:49.444
185.0, -10505.0732421875, 19322.658203125, -14065.28125, 134818.15625, -187500.015625, -97004.0, -187500.015625, -187500.015625, -0.12200000882148743, -0.64000004529953, 0.7660000324249268, 192.0, 252.0, 48.0, 236.0, 0.0, 23.0, 240.0, 0.0, 0.0, 0.0, 1.6137594494472833E9, 2021-02-19 16:30:49.447
10.0, -9912.037109375, 19794.66015625, -13605.1044921875, 135299.015625, -187500.015625, -148034.6875, -187500.015625, -187500.015625, -0.12200000882148743, -0.64000004529953, 0.7660000324249268, 192.0, 0.0, 0.0, 0.0, 0.0, 0.0, 0.0, 0.0, 0.0, 0.0, 1.6137594494522736E9, 2021-02-19 16:30:49.452
227.0, -9499.6474609375, 19854.62890625, -13539.1435546875, 135364.65625, -187500.015625, -121737.6328125, -187500.015625, -187500.015625, -0.12200000882148743, -0.64000004529953, 0.7660000324249268, 192.0, 0.0, 0.0, 0.0, 0.0, 0.0, 0.0, 0.0, 0.0, 0.0, 1.6137594494563217E9, 2021-02-19 16:30:49.456
24.0, -10598.81640625, 19857.51171875, -13545.8046875, 135363.234375, -187500.015625, -161394.71875, -187500.015625, -187500.015625, -0.12200000882148743, -0.64000004529953, 0.7660000324249268, 192.0, 0.0, 0.0, 0.0, 0.0, 0.0, 0.0, 0.0, 0.0, 0.0, 1.6137594494713562E9, 2021-02-19 16:30:49.471
216.0, -10334.216796875, 19691.126953125, -13698.19921875, 135192.328125, -187500.015625, -110405.0078125, -187500.015625, -187500.015625, -0.12200000882148743, -0.64000004529953, 0.7660000324249268, 192.0, 0.0, 0.0, 0.0, 0.0, 0.0, 0.0, 0.0, 0.0, 0.0, 1.6137594494744809E9, 2021-02-19 16:30:49.474
247.0, -10205.3818359375, 19988.896484375, -13410.197265625, 135487.1875, -187500.015625, -141492.6875, -187500.015625, -187500.015625, -0.12200000882148743, -0.64000004529953, 0.7660000324249268, 192.0, 0.0, 0.0, 0.0, 0.0, 0.0, 0.0, 0.0, 0.0, 0.0, 1.6137594494773211E9, 2021-02-19 16:30:49.477
8.0, -10052.6298828125, 19871.548828125, -13532.259765625, 135381.578125, -187500.015625, -147158.515625, -187500.015625, -187500.015625, -0.07800000160932541, -0.6100000143051147, 0.7780000567436218, 192.0, 253.0, 144.0, 236.0, 240.0, 24.0, 80.0, 0.0, 0.0, 0.0, 1.6137594494813213E9, 2021-02-19 16:30:49.481
50.0, -10496.4013671875, 19462.9375, -13930.9921875, 134969.6875, -187500.015625, -156538.921875, -187500.015625, -187500.015625, -0.07800000160932541, -0.6100000143051147, 0.7780000567436218, 192.0, 0.0, 0.0, 0.0, 0.0, 0.0, 0.0, 0.0, 0.0, 0.0, 1.6137594494843242E9, 2021-02-19 16:30:49.484
219.0, -10114.1416015625, 19747.005859375, -13641.134765625, 135256.5, -187500.015625, -113468.828125, -187500.015625, -187500.015625, -0.07800000160932541, -0.6100000143051147, 0.7780000567436218, 192.0, 0.0, 0.0, 0.0, 0.0, 0.0, 0.0, 0.0, 0.0, 0.0, 1.613759449487393E9, 2021-02-19 16:30:49.487
22.0, -10063.1123046875, 19688.35546875, -13707.36328125, 135201.46875, -187500.015625, -159099.234375, -187500.015625, -187500.015625, -0.07800000160932541, -0.6100000143051147, 0.7780000567436218, 192.0, 0.0, 0.0, 0.0, 0.0, 0.0, 0.0, 0.0, 0.0, 0.0, 1.6137594495013835E9, 2021-02-19 16:30:49.501
48.0, -10565.53515625, 19451.962890625, -13947.2197265625, 134946.421875, -187500.015625, -156228.046875, -187500.015625, -187500.015625, -0.07800000160932541, -0.6100000143051147, 0.7780000567436218, 192.0, 0.0, 0.0, 0.0, 0.0, 0.0, 0.0, 0.0, 0.0, 0.0, 1.6137594495314407E9, 2021-02-19 16:30:49.531
46.0, -10446.35546875, 19476.28125, -13930.7470703125, 134982.375, -187500.015625, -157432.25, -187500.015625, -187500.015625, -0.07800000160932541, -0.6100000143051147, 0.7780000567436218, 192.0, 0.0, 0.0, 0.0, 0.0, 0.0, 0.0, 0.0, 0.0, 0.0, 1.6137594495344336E9, 2021-02-19 16:30:49.534
29.0, -10556.4375, 19650.357421875, -13753.2958984375, 135165.859375, -187500.015625, -163094.390625, -187500.015625, -187500.015625, -0.07800000160932541, -0.6100000143051147, 0.7780000567436218, 192.0, 0.0, 0.0, 0.0, 0.0, 0.0, 0.0, 0.0, 0.0, 0.0, 1.613759449538573E9, 2021-02-19 16:30:49.538
34.0, -10395.818359375, 19385.845703125, -14019.3935546875, 134899.546875, -187500.015625, -161234.765625, -187500.015625, -187500.015625, -0.07800000160932541, -0.6100000143051147, 0.7780000567436218, 192.0, 0.0, 0.0, 0.0, 0.0, 0.0, 0.0, 0.0, 0.0, 0.0, 1.6137594495413795E9, 2021-02-19 16:30:49.541
44.0, -10673.8291015625, 19465.41796875, -13946.3037109375, 134959.359375, -187500.015625, -157521.078125, -187500.015625, -187500.015625, -0.07800000160932541, -0.6100000143051147, 0.7780000567436218, 192.0, 0.0, 0.0, 0.0, 0.0, 0.0, 0.0, 0.0, 0.0, 0.0, 1.6137594495455756E9, 2021-02-19 16:30:49.545
18.0, -9871.9609375, 19715.66796875, -13682.3291015625, 135224.25, -187500.015625, -156199.84375, -187500.015625, -187500.015625, -0.10600000619888306, -0.628000020980835, 0.7680000066757202, 192.0, 252.0, 176.0, 236.0, 96.0, 24.0, 0.0, 0.0, 0.0, 0.0, 1.6137594495484204E9, 2021-02-19 16:30:49.548
32.0, -10768.935546875, 19605.474609375, -13806.76171875, 135107.390625, -187500.015625, -162476.25, -187500.015625, -187500.015625, -0.10600000619888306, -0.628000020980835, 0.7680000066757202, 192.0, 0.0, 0.0, 0.0, 0.0, 0.0, 0.0, 0.0, 0.0, 0.0, 1.613759449551432E9, 2021-02-19 16:30:49.551
42.0, -10417.0751953125, 19387.365234375, -14019.9296875, 134895.640625, -187500.015625, -158529.671875, -187500.015625, -187500.015625, -0.10600000619888306, -0.628000020980835, 0.7680000066757202, 192.0, 0.0, 0.0, 0.0, 0.0, 0.0, 0.0, 0.0, 0.0, 0.0, 1.6137594495555317E9, 2021-02-19 16:30:49.555
40.0, -10611.53515625, 19449.2578125, -13965.4140625, 134943.359375, -187500.015625, -159265.53125, -187500.015625, -187500.015625, -0.10600000619888306, -0.628000020980835, 0.7680000066757202, 192.0, 0.0, 0.0, 0.0, 0.0, 0.0, 0.0, 0.0, 0.0, 0.0, 1.6137594495584254E9, 2021-02-19 16:30:49.558
58.0, -10195.0546875, 19588.599609375, -13795.3623046875, 135088.859375, -187500.015625, -156168.21875, -187500.015625, -187500.015625, -0.10600000619888306, -0.628000020980835, 0.7680000066757202, 192.0, 0.0, 0.0, 0.0, 0.0, 0.0, 0.0, 0.0, 0.0, 0.0, 1.6137594495624635E9, 2021-02-19 16:30:49.562
56.0, -10141.857421875, 19543.11328125, -13845.6982421875, 135037.609375, -187500.015625, -155050.328125, -187500.015625, -187500.015625, -0.10600000619888306, -0.628000020980835, 0.7680000066757202, 192.0, 0.0, 0.0, 0.0, 0.0, 0.0, 0.0, 0.0, 0.0, 0.0, 1.6137594495655096E9, 2021-02-19 16:30:49.565
38.0, -10326.1923828125, 19335.533203125, -14069.349609375, 134845.5, -187500.015625, -159943.375, -187500.015625, -187500.015625, -0.10600000619888306, -0.628000020980835, 0.7680000066757202, 192.0, 0.0, 0.0, 0.0, 0.0, 0.0, 0.0, 0.0, 0.0, 0.0, 1.6137594495695097E9, 2021-02-19 16:30:49.569
51.0, -10247.1572265625, 19406.8125, -13984.63671875, 134914.65625, -187500.015625, -155520.015625, -187500.015625, -187500.015625, -0.10600000619888306, -0.628000020980835, 0.7680000066757202, 192.0, 0.0, 0.0, 0.0, 0.0, 0.0, 0.0, 0.0, 0.0, 0.0, 1.6137594495725791E9, 2021-02-19 16:30:49.572
54.0, -10421.03125, 19553.373046875, -13837.8525390625, 135058.53125, -187500.015625, -156204.25, -187500.015625, -187500.015625, -0.10600000619888306, -0.628000020980835, 0.7680000066757202, 192.0, 0.0, 0.0, 0.0, 0.0, 0.0, 0.0, 0.0, 0.0, 0.0, 1.6137594495764434E9, 2021-02-19 16:30:49.576
59.0, -9915.412109375, 19522.056640625, -13856.5166015625, 135025.984375, -187500.015625, -155399.765625, -187500.015625, -187500.015625, -0.10600000619888306, -0.628000020980835, 0.7680000066757202, 192.0, 0.0, 0.0, 0.0, 0.0, 0.0, 0.0, 0.0, 0.0, 0.0, 1.6137594495795453E9, 2021-02-19 16:30:49.579
60.0, -9959.7578125, 19465.865234375, -13912.75390625, 134961.234375, -187500.015625, -154947.109375, -187500.015625, -187500.015625, -0.10600000619888306, -0.628000020980835, 0.7680000066757202, 192.0, 0.0, 0.0, 0.0, 0.0, 0.0, 0.0, 0.0, 0.0, 0.0, 1.613759449582474E9, 2021-02-19 16:30:49.582
67.0, -10142.0810546875, 19526.908203125, -13852.314453125, 135030.546875, -187500.015625, -155856.390625, -187500.015625, -187500.015625, -0.12800000607967377, -0.6420000195503235, 0.7500000596046448, 192.0, 252.0, 0.0, 235.0, 240.0, 23.0, 112.0, 0.0, 0.0, 0.0, 1.6137594495866065E9, 2021-02-19 16:30:49.586
62.0, -10264.6806640625, 19650.2890625, -13727.189453125, 135152.03125, -187500.015625, -156227.53125, -187500.015625, -187500.015625, -0.12800000607967377, -0.6420000195503235, 0.7500000596046448, 192.0, 0.0, 0.0, 0.0, 0.0, 0.0, 0.0, 0.0, 0.0, 0.0, 1.6137594495894804E9, 2021-02-19 16:30:49.589
63.0, -9964.2734375, 19506.478515625, -13868.6533203125, 135017.15625, -187500.015625, -155536.0, -187500.015625, -187500.015625, -0.12800000607967377, -0.6420000195503235, 0.7500000596046448, 192.0, 0.0, 0.0, 0.0, 0.0, 0.0, 0.0, 0.0, 0.0, 0.0, 1.6137594495934973E9, 2021-02-19 16:30:49.593
82.0, -10945.224609375, 19535.1328125, -13854.59375, 135013.546875, -187500.015625, -155874.84375, -187500.015625, -187500.015625, -0.12800000607967377, -0.6420000195503235, 0.7500000596046448, 192.0, 0.0, 0.0, 0.0, 0.0, 0.0, 0.0, 0.0, 0.0, 0.0, 1.6137594495965788E9, 2021-02-19 16:30:49.596
65.0, -10268.48046875, 19627.982421875, -13756.9619140625, 135121.515625, -187500.015625, -155463.4375, -187500.015625, -187500.015625, -0.12800000607967377, -0.6420000195503235, 0.7500000596046448, 192.0, 0.0, 0.0, 0.0, 0.0, 0.0, 0.0, 0.0, 0.0, 0.0, 1.6137594495995088E9, 2021-02-19 16:30:49.599
80.0, -10492.6015625, 19375.02734375, -14003.61328125, 134874.4375, -187500.015625, -155661.75, -187500.015625, -187500.015625, -0.12800000607967377, -0.6420000195503235, 0.7500000596046448, 192.0, 0.0, 0.0, 0.0, 0.0, 0.0, 0.0, 0.0, 0.0, 0.0, 1.6137594496035497E9, 2021-02-19 16:30:49.603
69.0, -10453.6650390625, 19623.623046875, -13756.3583984375, 135119.75, -187500.015625, -155854.03125, -187500.015625, -187500.015625, -0.12800000607967377, -0.6420000195503235, 0.7500000596046448, 192.0, 0.0, 0.0, 0.0, 0.0, 0.0, 0.0, 0.0, 0.0, 0.0, 1.6137594496064997E9, 2021-02-19 16:30:49.606
70.0, -10633.796875, 19682.275390625, -13698.8251953125, 135181.421875, -187500.015625, -156768.71875, -187500.015625, -187500.015625, -0.12800000607967377, -0.6420000195503235, 0.7500000596046448, 192.0, 0.0, 0.0, 0.0, 0.0, 0.0, 0.0, 0.0, 0.0, 0.0, 1.613759449609507E9, 2021-02-19 16:30:49.609
71.0, -10508.2919921875, 19563.765625, -13810.78515625, 135071.28125, -187500.015625, -156577.625, -187500.015625, -187500.015625, -0.12800000607967377, -0.6420000195503235, 0.7500000596046448, 192.0, 0.0, 0.0, 0.0, 0.0, 0.0, 0.0, 0.0, 0.0, 0.0, 1.6137594496135716E9, 2021-02-19 16:30:49.613
78.0, -10858.9462890625, 19598.09765625, -13785.638671875, 135087.875, -187500.015625, -156557.875, -187500.015625, -187500.015625, -0.12800000607967377, -0.6420000195503235, 0.7500000596046448, 192.0, 0.0, 0.0, 0.0, 0.0, 0.0, 0.0, 0.0, 0.0, 0.0, 1.6137594496165075E9, 2021-02-19 16:30:49.616
73.0, -10811.5830078125, 19515.486328125, -13865.3681640625, 135009.25, -187500.015625, -155944.03125, -187500.015625, -187500.015625, -0.12800000607967377, -0.6420000195503235, 0.7500000596046448, 192.0, 0.0, 0.0, 0.0, 0.0, 0.0, 0.0, 0.0, 0.0, 0.0, 1.6137594496195328E9, 2021-02-19 16:30:49.619
76.0, -10463.25390625, 19407.482421875, -13968.7001953125, 134907.296875, -187500.015625, -155850.90625, -187500.015625, -187500.015625, -0.12800000607967377, -0.6420000195503235, 0.7500000596046448, 192.0, 0.0, 0.0, 0.0, 0.0, 0.0, 0.0, 0.0, 0.0, 0.0, 1.6137594496234748E9, 2021-02-19 16:30:49.623
83.0, -10788.158203125, 19526.7734375, -13858.7744140625, 135015.6875, -187500.015625, -156074.921875, -187500.015625, -187500.015625, -0.12800000607967377, -0.6420000195503235, 0.7500000596046448, 192.0, 0.0, 0.0, 0.0, 0.0, 0.0, 0.0, 0.0, 0.0, 0.0, 1.6137594496369123E9, 2021-02-19 16:30:49.636
84.0, -10470.5400390625, 19380.705078125, -14000.0146484375, 134874.734375, -187500.015625, -155039.578125, -187500.015625, -187500.015625, -0.12800000607967377, -0.6420000195503235, 0.7500000596046448, 192.0, 0.0, 0.0, 0.0, 0.0, 0.0, 0.0, 0.0, 0.0, 0.0, 1.613759449648526E9, 2021-02-19 16:30:49.648
85.0, -10442.8017578125, 19314.677734375, -14065.6171875, 134800.90625, -187500.015625, -154111.78125, -187500.015625, -187500.015625, -0.12800000607967377, -0.6420000195503235, 0.7500000596046448, 192.0, 0.0, 0.0, 0.0, 0.0, 0.0, 0.0, 0.0, 0.0, 0.0, 1.61375944965364E9, 2021-02-19 16:30:49.653
86.0, -10719.5390625, 19387.41015625, -13998.9189453125, 134864.90625, -187500.015625, -154246.390625, -187500.015625, -187500.015625, -0.12800000607967377, -0.6420000195503235, 0.7500000596046448, 192.0, 0.0, 0.0, 0.0, 0.0, 0.0, 0.0, 0.0, 0.0, 0.0, 1.6137594497117035E9, 2021-02-19 16:30:49.711
87.0, -10632.076171875, 19370.7578125, -14016.689453125, 134856.5625, -187500.015625, -154073.96875, -187500.015625, -187500.015625, -0.1340000033378601, -0.6480000019073486, 0.7560000419616699, 192.0, 251.0, 208.0, 235.0, 192.0, 23.0, 160.0, 0.0, 0.0, 0.0, 1.6137594497166033E9, 2021-02-19 16:30:49.716
88.0, -10315.84375, 19215.19140625, -14170.6923828125, 134705.796875, -187500.015625, -152523.453125, -187500.015625, -187500.015625, -0.1340000033378601, -0.6480000019073486, 0.7560000419616699, 192.0, 0.0, 0.0, 0.0, 0.0, 0.0, 0.0, 0.0, 0.0, 0.0, 1.6137594497206583E9, 2021-02-19 16:30:49.720
89.0, -10227.9345703125, 19099.765625, -14286.4970703125, 134581.921875, -187500.015625, -150752.5625, -187500.015625, -187500.015625, -0.1340000033378601, -0.6480000019073486, 0.7560000419616699, 192.0, 0.0, 0.0, 0.0, 0.0, 0.0, 0.0, 0.0, 0.0, 0.0, 1.6137594497247984E9, 2021-02-19 16:30:49.724
90.0, -10486.4765625, 19185.9765625, -14206.7685546875, 134660.265625, -187500.015625, -149936.03125, -187500.015625, -187500.015625, -0.1340000033378601, -0.6480000019073486, 0.7560000419616699, 192.0, 0.0, 0.0, 0.0, 0.0, 0.0, 0.0, 0.0, 0.0, 0.0, 1.6137594497356308E9, 2021-02-19 16:30:49.735
91.0, -10445.7294921875, 19177.080078125, -14213.1611328125, 134657.703125, -187500.015625, -149133.21875, -187500.015625, -187500.015625, -0.1340000033378601, -0.6480000019073486, 0.7560000419616699, 192.0, 0.0, 0.0, 0.0, 0.0, 0.0, 0.0, 0.0, 0.0, 0.0, 1.6137594497397296E9, 2021-02-19 16:30:49.739
92.0, -10159.1806640625, 19016.751953125, -14367.9248046875, 134502.90625, -187500.015625, -147078.09375, -187500.015625, -187500.015625, -0.1340000033378601, -0.6480000019073486, 0.7560000419616699, 192.0, 0.0, 0.0, 0.0, 0.0, 0.0, 0.0, 0.0, 0.0, 0.0, 1.6137594497427168E9, 2021-02-19 16:30:49.742
93.0, -10003.7685546875, 18911.83203125, -14472.2177734375, 134387.09375, -187500.015625, -144862.234375, -187500.015625, -187500.015625, -0.1340000033378601, -0.6480000019073486, 0.7560000419616699, 192.0, 0.0, 0.0, 0.0, 0.0, 0.0, 0.0, 0.0, 0.0, 0.0, 1.6137594497458467E9, 2021-02-19 16:30:49.745
94.0, -10280.55078125, 19010.515625, -14381.4697265625, 134474.265625, -187500.015625, -143903.359375, -187500.015625, -187500.015625, -0.1340000033378601, -0.6480000019073486, 0.7560000419616699, 192.0, 0.0, 0.0, 0.0, 0.0, 0.0, 0.0, 0.0, 0.0, 0.0, 1.6137594497496464E9, 2021-02-19 16:30:49.749
95.0, -10409.5869140625, 19066.015625, -14330.015625, 134533.15625, -187500.015625, -143424.09375, -187500.015625, -187500.015625, -0.1340000033378601, -0.6480000019073486, 0.7560000419616699, 192.0, 0.0, 0.0, 0.0, 0.0, 0.0, 0.0, 0.0, 0.0, 0.0, 1.6137594497526715E9, 2021-02-19 16:30:49.752
96.0, -10199.9951171875, 18994.35546875, -14398.0322265625, 134469.0, -187500.015625, -141825.6875, -187500.015625, -187500.015625, -0.1340000033378601, -0.6420000195503235, 0.7640000581741333, 192.0, 251.0, 208.0, 235.0, 240.0, 23.0, 224.0, 0.0, 0.0, 0.0, 1.6137594497558465E9, 2021-02-19 16:30:49.755
97.0, -9999.701171875, 18903.78515625, -14487.39453125, 134380.046875, -187500.015625, -139358.984375, -187500.015625, -187500.015625, -0.1340000033378601, -0.6420000195503235, 0.7640000581741333, 192.0, 0.0, 0.0, 0.0, 0.0, 0.0, 0.0, 0.0, 0.0, 0.0, 1.6137594498039343E9, 2021-02-19 16:30:49.803
98.0, -10289.71484375, 18937.873046875, -14456.5712890625, 134402.328125, -187500.015625, -137653.59375, -187500.015625, -187500.015625, -0.1340000033378601, -0.6420000195503235, 0.7640000581741333, 192.0, 0.0, 0.0, 0.0, 0.0, 0.0, 0.0, 0.0, 0.0, 0.0, 1.6137594498069048E9, 2021-02-19 16:30:49.806
127.0, -10322.52734375, 19773.626953125, -13635.3232421875, 135196.28125, -187500.015625, -135728.375, -187500.015625, -187500.015625, -0.1340000033378601, -0.6420000195503235, 0.7640000581741333, 192.0, 0.0, 0.0, 0.0, 0.0, 0.0, 0.0, 0.0, 0.0, 0.0, 1.6137594498097365E9, 2021-02-19 16:30:49.809
100.0, -10268.8828125, 18805.326171875, -14589.67578125, 134280.578125, -187500.015625, -133827.09375, -187500.015625, -187500.015625, -0.1340000033378601, -0.6420000195503235, 0.7640000581741333, 192.0, 0.0, 0.0, 0.0, 0.0, 0.0, 0.0, 0.0, 0.0, 0.0, 1.6137594498139052E9, 2021-02-19 16:30:49.813
125.0, -10482.341796875, 20022.53515625, -13390.21484375, 135455.921875, -187500.015625, -135665.1875, -187500.015625, -187500.015625, -0.1340000033378601, -0.6420000195503235, 0.7640000581741333, 192.0, 0.0, 0.0, 0.0, 0.0, 0.0, 0.0, 0.0, 0.0, 0.0, 1.6137594498317564E9, 2021-02-19 16:30:49.831
102.0, -10397.986328125, 18778.236328125, -14619.671875, 134233.984375, -187500.015625, -129262.96875, -187500.015625, -187500.015625, -0.1340000033378601, -0.6420000195503235, 0.7640000581741333, 192.0, 0.0, 0.0, 0.0, 0.0, 0.0, 0.0, 0.0, 0.0, 0.0, 1.613759449853858E9, 2021-02-19 16:30:49.853
103.0, -10764.2421875, 18989.326171875, -14412.8515625, 134442.703125, -187500.015625, -129126.9609375, -187500.015625, -187500.015625, -0.1340000033378601, -0.6420000195503235, 0.7640000581741333, 192.0, 0.0, 0.0, 0.0, 0.0, 0.0, 0.0, 0.0, 0.0, 0.0, 1.6137594498567727E9, 2021-02-19 16:30:49.856
123.0, -10542.3115234375, 19780.734375, -13633.2451171875, 135201.921875, -187500.015625, -131114.078125, -187500.015625, -187500.015625, -0.1340000033378601, -0.6420000195503235, 0.7640000581741333, 192.0, 0.0, 0.0, 0.0, 0.0, 0.0, 0.0, 0.0, 0.0, 0.0, 1.6137594498608325E9, 2021-02-19 16:30:49.860
105.0, -10404.6025390625, 18890.77734375, -14502.638671875, 134353.984375, -187500.015625, -126251.4296875, -187500.015625, -187500.015625, -0.1340000033378601, -0.6420000195503235, 0.7640000581741333, 192.0, 0.0, 0.0, 0.0, 0.0, 0.0, 0.0, 0.0, 0.0, 0.0, 1.6137594498707845E9, 2021-02-19 16:30:49.870
106.0, -10590.9267578125, 19015.8359375, -14380.7099609375, 134468.015625, -187500.015625, -125523.75, -187500.015625, -187500.015625, -0.13600000739097595, -0.6460000276565552, 0.7500000596046448, 192.0, 251.0, 192.0, 235.0, 208.0, 23.0, 112.0, 0.0, 0.0, 0.0, 1.6137594498748493E9, 2021-02-19 16:30:49.874
119.0, -10577.6943359375, 19602.390625, -13807.923828125, 135025.875, -187500.015625, -126609.640625, -187500.015625, -187500.015625, -0.13600000739097595, -0.6460000276565552, 0.7500000596046448, 192.0, 0.0, 0.0, 0.0, 0.0, 0.0, 0.0, 0.0, 0.0, 0.0, 1.6137594499429803E9, 2021-02-19 16:30:49.942
117.0, -10481.89453125, 19502.8125, -13900.3486328125, 134945.5, -187500.015625, -126094.1875, -187500.015625, -187500.015625, -0.13600000739097595, -0.6460000276565552, 0.7500000596046448, 192.0, 0.0, 0.0, 0.0, 0.0, 0.0, 0.0, 0.0, 0.0, 0.0, 1.6137594501231363E9, 2021-02-19 16:30:50.123
109.0, -10611.2890625, 19159.69140625, -14236.4287109375, 134623.6875, -187500.015625, -125588.90625, -187500.015625, -187500.015625, -0.13600000739097595, -0.6460000276565552, 0.7500000596046448, 192.0, 0.0, 0.0, 0.0, 0.0, 0.0, 0.0, 0.0, 0.0, 0.0, 1.61375945021121E9, 2021-02-19 16:30:50.211
115.0, -10857.3818359375, 19446.173828125, -13966.1962890625, 134876.875, -187500.015625, -124771.28125, -187500.015625, -187500.015625, -0.13600000739097595, -0.6460000276565552, 0.7500000596046448, 192.0, 0.0, 0.0, 0.0, 0.0, 0.0, 0.0, 0.0, 0.0, 0.0, 1.613759450262355E9, 2021-02-19 16:30:50.262
150.0, -10339.0, 19799.2421875, -13619.4091796875, 135204.640625, -187500.015625, -155074.71875, -187500.015625, -187500.015625, -0.13600000739097595, -0.6460000276565552, 0.7500000596046448, 192.0, 0.0, 0.0, 0.0, 0.0, 0.0, 0.0, 0.0, 0.0, 0.0, 1.6137594502873063E9, 2021-02-19 16:30:50.287
253.0, -10992.654296875, 19407.05859375, -14046.6181640625, 134661.640625, -187500.015625, -138424.96875, -187500.015625, -187500.015625, -0.13600000739097595, -0.6460000276565552, 0.7500000596046448, 192.0, 0.0, 0.0, 0.0, 0.0, 0.0, 0.0, 0.0, 0.0, 0.0, 1.6137594503423245E9, 2021-02-19 16:30:50.342
254.0, -10924.548828125, 19469.93359375, -13982.9599609375, 134728.203125, -187500.015625, -138986.421875, -187500.015625, -187500.015625, -0.12400000542402267, -0.6380000114440918, 0.7640000581741333, 192.0, 252.0, 32.0, 236.0, 16.0, 23.0, 224.0, 0.0, 0.0, 0.0, 1.6137594504295368E9, 2021-02-19 16:30:50.429
255.0, -10578.5439453125, 19288.615234375, -14159.6953125, 134551.953125, -187500.015625, -137981.15625, -187500.015625, -187500.015625, -0.12400000542402267, -0.6380000114440918, 0.7640000581741333, 192.0, 0.0, 0.0, 0.0, 0.0, 0.0, 0.0, 0.0, 0.0, 0.0, 1.6137594505186012E9, 2021-02-19 16:30:50.518
0.0, -10545.865234375, 19213.759765625, -14233.5009765625, 134468.453125, -187500.015625, -136930.375, -187500.015625, -187500.015625, -0.12400000542402267, -0.6380000114440918, 0.7640000581741333, 192.0, 0.0, 0.0, 0.0, 0.0, 0.0, 0.0, 0.0, 0.0, 0.0, 1.613759450539608E9, 2021-02-19 16:30:50.539
47.0, -10664.3076171875, 19674.98828125, -13773.8369140625, 134869.390625, -187500.015625, -147524.65625, -187500.015625, -187500.015625, -0.12200000882148743, -0.6540000438690186, 0.7580000162124634, 192.0, 252.0, 48.0, 235.0, 144.0, 23.0, 176.0, 0.0, 0.0, 0.0, 1.6137594505436058E9, 2021-02-19 16:30:50.543
48.0, -10676.623046875, 19727.4921875, -13719.142578125, 134929.25, -187500.015625, -148802.53125, -187500.015625, -187500.015625, -0.12200000882148743, -0.6540000438690186, 0.7580000162124634, 192.0, 0.0, 0.0, 0.0, 0.0, 0.0, 0.0, 0.0, 0.0, 0.0, 1.6137594505485961E9, 2021-02-19 16:30:50.548
49.0, -10346.7119140625, 19576.70703125, -13864.7646484375, 134783.765625, -187500.015625, -148384.859375, -187500.015625, -187500.015625, -0.12200000882148743, -0.6540000438690186, 0.7580000162124634, 192.0, 0.0, 0.0, 0.0, 0.0, 0.0, 0.0, 0.0, 0.0, 0.0, 1.6137594505726955E9, 2021-02-19 16:30:50.572
50.0, -10245.6142578125, 19502.25390625, -13938.9052734375, 134701.359375, -187500.015625, -147694.3125, -187500.015625, -187500.015625, -0.12200000882148743, -0.6540000438690186, 0.7580000162124634, 192.0, 0.0, 0.0, 0.0, 0.0, 0.0, 0.0, 0.0, 0.0, 0.0, 1.6137594505946348E9, 2021-02-19 16:30:50.594
51.0, -10602.9521484375, 19677.71484375, -13770.529296875, 134865.015625, -187500.015625, -148703.890625, -187500.015625, -187500.015625, -0.12200000882148743, -0.6540000438690186, 0.7580000162124634, 192.0, 0.0, 0.0, 0.0, 0.0, 0.0, 0.0, 0.0, 0.0, 0.0, 1.6137594506827471E9, 2021-02-19 16:30:50.682
52.0, -10691.0849609375, 19748.48046875, -13703.2509765625, 134939.953125, -187500.015625, -150185.96875, -187500.015625, -187500.015625, -0.12200000882148743, -0.6540000438690186, 0.7580000162124634, 192.0, 0.0, 0.0, 0.0, 0.0, 0.0, 0.0, 0.0, 0.0, 0.0, 1.613759450686775E9, 2021-02-19 16:30:50.686
53.0, -10388.12890625, 19613.6328125, -13832.935546875, 134812.4375, -187500.015625, -150081.859375, -187500.015625, -187500.015625, -0.12200000882148743, -0.6540000438690186, 0.7580000162124634, 192.0, 0.0, 0.0, 0.0, 0.0, 0.0, 0.0, 0.0, 0.0, 0.0, 1.6137594507078416E9, 2021-02-19 16:30:50.707
114.0, -11104.32421875, 19436.830078125, -14022.8583984375, 134561.390625, -187500.015625, -152790.90625, -187500.015625, -187500.015625, -0.12200000882148743, -0.6540000438690186, 0.7580000162124634, 192.0, 0.0, 0.0, 0.0, 0.0, 0.0, 0.0, 0.0, 0.0, 0.0, 1.613759450728776E9, 2021-02-19 16:30:50.728
115.0, -10992.296875, 19446.91015625, -14011.212890625, 134581.4375, -187500.015625, -153030.046875, -187500.015625, -187500.015625, -0.12200000882148743, -0.6540000438690186, 0.7580000162124634, 192.0, 0.0, 0.0, 0.0, 0.0, 0.0, 0.0, 0.0, 0.0, 0.0, 1.6137594507498257E9, 2021-02-19 16:30:50.749
116.0, -10670.2080078125, 19304.5078125, -14148.8544921875, 134445.6875, -187500.015625, -151683.609375, -187500.015625, -187500.015625, -0.11800000816583633, -0.6520000100135803, 0.7580000162124634, 192.0, 252.0, 80.0, 235.0, 160.0, 23.0, 176.0, 0.0, 0.0, 0.0, 1.6137594507538767E9, 2021-02-19 16:30:50.753
117.0, -10683.6640625, 19243.041015625, -14214.099609375, 134378.140625, -187500.015625, -150545.3125, -187500.015625, -187500.015625, -0.11800000816583633, -0.6520000100135803, 0.7580000162124634, 192.0, 0.0, 0.0, 0.0, 0.0, 0.0, 0.0, 0.0, 0.0, 0.0, 1.6137594508119717E9, 2021-02-19 16:30:50.811
118.0, -11078.4853515625, 19411.103515625, -14056.251953125, 134537.140625, -187500.015625, -151065.84375, -187500.015625, -187500.015625, -0.11800000816583633, -0.6520000100135803, 0.7580000162124634, 192.0, 0.0, 0.0, 0.0, 0.0, 0.0, 0.0, 0.0, 0.0, 0.0, 1.6137594508158858E9, 2021-02-19 16:30:50.815
119.0, -11050.076171875, 19454.599609375, -14012.9111328125, 134589.03125, -187500.015625, -151553.109375, -187500.015625, -187500.015625, -0.11800000816583633, -0.6520000100135803, 0.7580000162124634, 192.0, 0.0, 0.0, 0.0, 0.0, 0.0, 0.0, 0.0, 0.0, 0.0, 1.6137594508208776E9, 2021-02-19 16:30:50.820
120.0, -10729.4404296875, 19336.44921875, -14125.810546875, 134476.0, -187500.015625, -150470.265625, -187500.015625, -187500.015625, -0.11800000816583633, -0.6520000100135803, 0.7580000162124634, 192.0, 0.0, 0.0, 0.0, 0.0, 0.0, 0.0, 0.0, 0.0, 0.0, 1.613759450871954E9, 2021-02-19 16:30:50.871
121.0, -10638.423828125, 19290.716796875, -14169.5302734375, 134425.984375, -187500.015625, -149253.453125, -187500.015625, -187500.015625, -0.11800000816583633, -0.6520000100135803, 0.7580000162124634, 192.0, 0.0, 0.0, 0.0, 0.0, 0.0, 0.0, 0.0, 0.0, 0.0, 1.6137594509221616E9, 2021-02-19 16:30:50.922
122.0, -11014.1796875, 19417.474609375, -14048.3837890625, 134541.625, -187500.015625, -149654.109375, -187500.015625, -187500.015625, -0.11800000816583633, -0.6520000100135803, 0.7580000162124634, 192.0, 0.0, 0.0, 0.0, 0.0, 0.0, 0.0, 0.0, 0.0, 0.0, 1.6137594509260979E9, 2021-02-19 16:30:50.926
123.0, -11093.662109375, 19508.826171875, -13954.529296875, 134635.59375, -187500.015625, -150420.109375, -187500.015625, -187500.015625, -0.11800000816583633, -0.6520000100135803, 0.7580000162124634, 192.0, 0.0, 0.0, 0.0, 0.0, 0.0, 0.0, 0.0, 0.0, 0.0, 1.6137594509462492E9, 2021-02-19 16:30:50.946
124.0, -10781.966796875, 19391.142578125, -14064.8125, 134528.46875, -187500.015625, -149645.796875, -187500.015625, -187500.015625, -0.11800000816583633, -0.6520000100135803, 0.7580000162124634, 192.0, 0.0, 0.0, 0.0, 0.0, 0.0, 0.0, 0.0, 0.0, 0.0, 1.6137594509511726E9, 2021-02-19 16:30:50.951
125.0, -10615.916015625, 19272.142578125, -14180.2587890625, 134408.140625, -187500.015625, -148276.53125, -187500.015625, -187500.015625, -0.11800000816583633, -0.6520000100135803, 0.7580000162124634, 192.0, 0.0, 0.0, 0.0, 0.0, 0.0, 0.0, 0.0, 0.0, 0.0, 1.6137594509761395E9, 2021-02-19 16:30:50.976
126.0, -10958.9931640625, 19378.73828125, -14078.71484375, 134503.140625, -187500.015625, -148336.28125, -187500.015625, -187500.015625, -0.12000000476837158, -0.6460000276565552, 0.7520000338554382, 192.0, 252.0, 64.0, 235.0, 208.0, 23.0, 128.0, 0.0, 0.0, 0.0, 1.613759450980226E9, 2021-02-19 16:30:50.980
127.0, -11128.0166015625, 19484.751953125, -13973.572265625, 134613.046875, -187500.015625, -149133.421875, -187500.015625, -187500.015625, -0.12000000476837158, -0.6460000276565552, 0.7520000338554382, 192.0, 0.0, 0.0, 0.0, 0.0, 0.0, 0.0, 0.0, 0.0, 0.0, 1.61375945098421E9, 2021-02-19 16:30:50.984
128.0, -10853.2021484375, 19405.6953125, -14049.3447265625, 134541.25, -187500.015625, -148584.609375, -187500.015625, -187500.015625, -0.12000000476837158, -0.6460000276565552, 0.7520000338554382, 192.0, 0.0, 0.0, 0.0, 0.0, 0.0, 0.0, 0.0, 0.0, 0.0, 1.6137594510051289E9, 2021-02-19 16:30:51.005
129.0, -10613.0322265625, 19297.623046875, -14156.275390625, 134431.796875, -187500.015625, -147108.296875, -187500.015625, -187500.015625, -0.12000000476837158, -0.6460000276565552, 0.7520000338554382, 192.0, 0.0, 0.0, 0.0, 0.0, 0.0, 0.0, 0.0, 0.0, 0.0, 1.6137594510231493E9, 2021-02-19 16:30:51.023
130.0, -10870.6806640625, 19350.865234375, -14110.7900390625, 134473.96875, -187500.015625, -146734.140625, -187500.015625, -187500.015625, -0.12000000476837158, -0.6460000276565552, 0.7520000338554382, 192.0, 0.0, 0.0, 0.0, 0.0, 0.0, 0.0, 0.0, 0.0, 0.0, 1.6137594510272355E9, 2021-02-19 16:30:51.027
