%OpenBCI Raw EEG Data
%Number of channels = 8
%Sample Rate = 250 Hz
%Board = OpenBCI_GUI$BoardCytonSerial
Sample Index, EXG Channel 0, EXG Channel 1, EXG Channel 2, EXG Channel 3, EXG Channel 4, EXG Channel 5, EXG Channel 6, EXG Channel 7, Accel Channel 0, Accel Channel 1, Accel Channel 2, Other, Other, Other, Other, Other, Other, Other, Analog Channel 0, Analog Channel 1, Analog Channel 2, Timestamp, Timestamp (Formatted)
116.0, -12821.2509765625, 21539.056640625, -13837.0927734375, 136245.640625, -187500.015625, -147849.0, -187500.015625, -187500.015625, 0.0, 0.0, 0.0, 192.0, 0.0, 0.0, 0.0, 0.0, 0.0, 0.0, 0.0, 0.0, 0.0, 1.6137593107737107E9, 2021-02-19 16:28:30.773
217.0, -13044.7900390625, 21752.76171875, -13636.0166015625, 136430.375, -187500.015625, -151794.421875, -187500.015625, -187500.015625, 0.0, 0.0, 0.0, 192.0, 0.0, 0.0, 0.0, 0.0, 0.0, 0.0, 0.0, 0.0, 0.0, 1.6137593107737164E9, 2021-02-19 16:28:30.773
215.0, -12657.748046875, 21654.1015625, -13727.3681640625, 136349.640625, -187500.015625, -152157.578125, -187500.015625, -187500.015625, 0.0, 0.0, 0.0, 192.0, 0.0, 0.0, 0.0, 0.0, 0.0, 0.0, 0.0, 0.0, 0.0, 1.6137593107737215E9, 2021-02-19 16:28:30.773
231.0, -12829.6103515625, 21779.337890625, -13592.4306640625, 136480.3125, -187500.015625, -153569.171875, -187500.015625, -187500.015625, -0.13600000739097595, -0.6240000128746033, 0.7700000405311584, 192.0, 251.0, 192.0, 236.0, 128.0, 24.0, 16.0, 0.0, 0.0, 0.0, 1.6137593107737265E9, 2021-02-19 16:28:30.773
144.0, -12605.466796875, 21654.994140625, -13719.142578125, 136376.109375, -187500.015625, -152330.328125, -187500.015625, -187500.015625, -0.13600000739097595, -0.6240000128746033, 0.7700000405311584, 192.0, 0.0, 0.0, 0.0, 0.0, 0.0, 0.0, 0.0, 0.0, 0.0, 1.6137593107737312E9, 2021-02-19 16:28:30.773
213.0, -13052.904296875, 21808.775390625, -13583.7138671875, 136493.03125, -187500.015625, -152000.890625, -187500.015625, -187500.015625, -0.13600000739097595, -0.6240000128746033, 0.7700000405311584, 192.0, 0.0, 0.0, 0.0, 0.0, 0.0, 0.0, 0.0, 0.0, 0.0, 1.6137593107737358E9, 2021-02-19 16:28:30.773
189.0, -12752.4072265625, 21902.4296875, -13488.96484375, 136599.109375, -187500.015625, -151769.6875, -187500.015625, -187500.015625, -0.13600000739097595, -0.6240000128746033, 0.7700000405311584, 192.0, 0.0, 0.0, 0.0, 0.0, 0.0, 0.0, 0.0, 0.0, 0.0, 1.6137593107737405E9, 2021-02-19 16:28:30.773
199.0, -12582.9140625, 21545.13671875, -13844.916015625, 136244.515625, -187500.015625, -150351.171875, -187500.015625, -187500.015625, -0.13600000739097595, -0.6240000128746033, 0.7700000405311584, 192.0, 0.0, 0.0, 0.0, 0.0, 0.0, 0.0, 0.0, 0.0, 0.0, 1.613759310773748E9, 2021-02-19 16:28:30.773
229.0, -12897.626953125, 21604.94921875, -13767.6015625, 136294.1875, -187500.015625, -151357.625, -187500.015625, -187500.015625, -0.13600000739097595, -0.6240000128746033, 0.7700000405311584, 192.0, 0.0, 0.0, 0.0, 0.0, 0.0, 0.0, 0.0, 0.0, 0.0, 1.6137593107737532E9, 2021-02-19 16:28:30.773
197.0, -12881.1533203125, 21870.5546875, -13520.927734375, 136563.03125, -187500.015625, -152339.140625, -187500.015625, -187500.015625, -0.13600000739097595, -0.6240000128746033, 0.7700000405311584, 192.0, 0.0, 0.0, 0.0, 0.0, 0.0, 0.0, 0.0, 0.0, 0.0, 1.6137593107737586E9, 2021-02-19 16:28:30.773
209.0, -13023.4892578125, 21818.296875, -13574.548828125, 136506.6875, -187500.015625, -152180.640625, -187500.015625, -187500.015625, -0.13600000739097595, -0.6240000128746033, 0.7700000405311584, 192.0, 0.0, 0.0, 0.0, 0.0, 0.0, 0.0, 0.0, 0.0, 0.0, 1.613759310773764E9, 2021-02-19 16:28:30.773
227.0, -12793.646484375, 21718.853515625, -13652.712890625, 136417.96875, -187500.015625, -153359.421875, -187500.015625, -187500.015625, -0.13600000739097595, -0.6240000128746033, 0.7700000405311584, 192.0, 0.0, 0.0, 0.0, 0.0, 0.0, 0.0, 0.0, 0.0, 0.0, 1.613759310773769E9, 2021-02-19 16:28:30.773
225.0, -12986.8994140625, 21634.1640625, -13743.037109375, 136319.59375, -187500.015625, -151503.609375, -187500.015625, -187500.015625, -0.13600000739097595, -0.6240000128746033, 0.7700000405311584, 192.0, 0.0, 0.0, 0.0, 0.0, 0.0, 0.0, 0.0, 0.0, 0.0, 1.613759310773774E9, 2021-02-19 16:28:30.773
235.0, -12854.0634765625, 21794.134765625, -13583.400390625, 136493.8125, -187500.015625, -153681.5, -187500.015625, -187500.015625, -0.13600000739097595, -0.6240000128746033, 0.7700000405311584, 192.0, 0.0, 0.0, 0.0, 0.0, 0.0, 0.0, 0.0, 0.0, 0.0, 1.6137593107737792E9, 2021-02-19 16:28:30.773
204.0, -12832.650390625, 21662.1484375, -13728.9326171875, 136352.4375, -187500.015625, -150613.109375, -187500.015625, -187500.015625, -0.13600000739097595, -0.6240000128746033, 0.7700000405311584, 192.0, 0.0, 0.0, 0.0, 0.0, 0.0, 0.0, 0.0, 0.0, 0.0, 1.6137593107737846E9, 2021-02-19 16:28:30.773
223.0, -12720.220703125, 21718.1171875, -13654.92578125, 136411.9375, -187500.015625, -153026.390625, -187500.015625, -187500.015625, -0.13600000739097595, -0.6240000128746033, 0.7700000405311584, 192.0, 0.0, 0.0, 0.0, 0.0, 0.0, 0.0, 0.0, 0.0, 0.0, 1.6137593107737894E9, 2021-02-19 16:28:30.773
190.0, -12497.84375, 21675.46875, -13712.19140625, 136377.21875, -187500.015625, -150658.546875, -187500.015625, -187500.015625, -0.13600000739097595, -0.6240000128746033, 0.7700000405311584, 192.0, 0.0, 0.0, 0.0, 0.0, 0.0, 0.0, 0.0, 0.0, 0.0, 1.613759310773794E9, 2021-02-19 16:28:30.773
242.0, -12937.8818359375, 21662.326171875, -13707.67578125, 136363.390625, -187500.015625, -152187.34375, -187500.015625, -187500.015625, -0.13600000739097595, -0.6240000128746033, 0.7700000405311584, 192.0, 0.0, 0.0, 0.0, 0.0, 0.0, 0.0, 0.0, 0.0, 0.0, 1.6137593107737992E9, 2021-02-19 16:28:30.773
232.0, -12649.1865234375, 21547.86328125, -13820.59765625, 136252.109375, -187500.015625, -152008.890625, -187500.015625, -187500.015625, -0.13600000739097595, -0.6240000128746033, 0.7700000405311584, 192.0, 0.0, 0.0, 0.0, 0.0, 0.0, 0.0, 0.0, 0.0, 0.0, 1.613759310773804E9, 2021-02-19 16:28:30.773
1.0, -12329.1328125, 21576.919921875, -13787.78515625, 136293.25, -187500.015625, -152321.703125, -187500.015625, -187500.015625, -0.13600000739097595, -0.6240000128746033, 0.7700000405311584, 192.0, 0.0, 0.0, 0.0, 0.0, 0.0, 0.0, 0.0, 0.0, 0.0, 1.6137593107738097E9, 2021-02-19 16:28:30.773
236.0, -12633.5185546875, 21618.517578125, -13756.73828125, 136322.765625, -187500.015625, -152351.421875, -187500.015625, -187500.015625, -0.13600000739097595, -0.6240000128746033, 0.7700000405311584, 192.0, 0.0, 0.0, 0.0, 0.0, 0.0, 0.0, 0.0, 0.0, 0.0, 1.613759310773815E9, 2021-02-19 16:28:30.773
255.0, -12787.5, 21789.486328125, -13581.1875, 136492.953125, -187500.015625, -153196.921875, -187500.015625, -187500.015625, -0.13600000739097595, -0.6240000128746033, 0.7700000405311584, 192.0, 0.0, 0.0, 0.0, 0.0, 0.0, 0.0, 0.0, 0.0, 0.0, 1.6137593107738197E9, 2021-02-19 16:28:30.773
238.0, -13052.658203125, 21712.259765625, -13665.69921875, 136404.53125, -187500.015625, -152406.890625, -187500.015625, -187500.015625, -0.13600000739097595, -0.6240000128746033, 0.7700000405311584, 192.0, 0.0, 0.0, 0.0, 0.0, 0.0, 0.0, 0.0, 0.0, 0.0, 1.613759310773824E9, 2021-02-19 16:28:30.773
243.0, -12834.3037109375, 21820.48828125, -13551.6162109375, 136523.484375, -187500.015625, -153765.15625, -187500.015625, -187500.015625, -0.13600000739097595, -0.6240000128746033, 0.7700000405311584, 192.0, 0.0, 0.0, 0.0, 0.0, 0.0, 0.0, 0.0, 0.0, 0.0, 1.613759310773833E9, 2021-02-19 16:28:30.773
253.0, -12335.591796875, 21528.216796875, -13836.1318359375, 136243.421875, -187500.015625, -152116.265625, -187500.015625, -187500.015625, -0.13600000739097595, -0.6240000128746033, 0.7700000405311584, 192.0, 0.0, 0.0, 0.0, 0.0, 0.0, 0.0, 0.0, 0.0, 0.0, 1.613759310773837E9, 2021-02-19 16:28:30.773
245.0, -12493.1494140625, 21528.55078125, -13837.0927734375, 136237.46875, -187500.015625, -151592.703125, -187500.015625, -187500.015625, -0.13600000739097595, -0.6240000128746033, 0.7700000405311584, 192.0, 0.0, 0.0, 0.0, 0.0, 0.0, 0.0, 0.0, 0.0, 0.0, 1.613759310773842E9, 2021-02-19 16:28:30.773
251.0, -12803.4365234375, 21848.583984375, -13522.537109375, 136556.59375, -187500.015625, -153599.375, -187500.015625, -187500.015625, -0.13199999928474426, -0.6340000033378601, 0.7700000405311584, 192.0, 251.0, 224.0, 236.0, 48.0, 24.0, 16.0, 0.0, 0.0, 0.0, 1.613759310773848E9, 2021-02-19 16:28:30.773
247.0, -12791.27734375, 21776.029296875, -13596.6552734375, 136480.125, -187500.015625, -153775.859375, -187500.015625, -187500.015625, -0.13199999928474426, -0.6340000033378601, 0.7700000405311584, 192.0, 0.0, 0.0, 0.0, 0.0, 0.0, 0.0, 0.0, 0.0, 0.0, 1.6137593107738533E9, 2021-02-19 16:28:30.773
248.0, -12501.0400390625, 21717.982421875, -13648.1982421875, 136421.8125, -187500.015625, -153599.4375, -187500.015625, -187500.015625, -0.13199999928474426, -0.6340000033378601, 0.7700000405311584, 192.0, 0.0, 0.0, 0.0, 0.0, 0.0, 0.0, 0.0, 0.0, 0.0, 1.6137593107738583E9, 2021-02-19 16:28:30.773
249.0, -12374.0595703125, 21566.59375, -13795.2060546875, 136271.78125, -187500.015625, -151913.453125, -187500.015625, -187500.015625, -0.13199999928474426, -0.6340000033378601, 0.7700000405311584, 192.0, 0.0, 0.0, 0.0, 0.0, 0.0, 0.0, 0.0, 0.0, 0.0, 1.6137593107738636E9, 2021-02-19 16:28:30.773
0.0, 0.0, 0.0, 0.0, 0.0, 0.0, 0.0, 0.0, 0.0, -0.09000000357627869, -0.628000020980835, 0.7820000648498535, 192.0, 253.0, 48.0, 236.0, 96.0, 24.0, 112.0, 0.0, 0.0, 0.0, 1.6137593109350977E9, 2021-02-19 16:28:30.935
1.0, -12464.3603515625, 20067.41796875, -13974.578125, 136866.1875, -187500.015625, -167682.375, -187500.015625, -187500.015625, -0.09000000357627869, -0.628000020980835, 0.7820000648498535, 192.0, 0.0, 0.0, 0.0, 0.0, 0.0, 0.0, 0.0, 0.0, 0.0, 1.6137593109951563E9, 2021-02-19 16:28:30.995
2.0, -12420.908203125, 19888.044921875, -14152.833984375, 136681.359375, -187500.015625, -166121.578125, -187500.015625, -187500.015625, -0.09000000357627869, -0.628000020980835, 0.7820000648498535, 192.0, 0.0, 0.0, 0.0, 0.0, 0.0, 0.0, 0.0, 0.0, 0.0, 1.613759311113377E9, 2021-02-19 16:28:31.113
3.0, -12676.8134765625, 20039.455078125, -14008.6650390625, 136824.171875, -187500.015625, -166261.5625, -187500.015625, -187500.015625, -0.09000000357627869, -0.628000020980835, 0.7820000648498535, 192.0, 0.0, 0.0, 0.0, 0.0, 0.0, 0.0, 0.0, 0.0, 0.0, 1.6137593111203942E9, 2021-02-19 16:28:31.120
4.0, -12708.396484375, 20189.546875, -13859.1982421875, 136982.59375, -187500.015625, -167590.15625, -187500.015625, -187500.015625, -0.09000000357627869, -0.628000020980835, 0.7820000648498535, 192.0, 0.0, 0.0, 0.0, 0.0, 0.0, 0.0, 0.0, 0.0, 0.0, 1.613759311125426E9, 2021-02-19 16:28:31.125
5.0, -12489.4833984375, 20082.013671875, -13961.48046875, 136883.15625, -187500.015625, -167366.578125, -187500.015625, -187500.015625, -0.09000000357627869, -0.628000020980835, 0.7820000648498535, 192.0, 0.0, 0.0, 0.0, 0.0, 0.0, 0.0, 0.0, 0.0, 0.0, 1.6137593111363456E9, 2021-02-19 16:28:31.136
62.0, -12787.3203125, 20164.826171875, -13910.4736328125, 136941.78125, -187500.015625, -164823.5625, -187500.015625, -187500.015625, -0.09000000357627869, -0.628000020980835, 0.7820000648498535, 192.0, 0.0, 0.0, 0.0, 0.0, 0.0, 0.0, 0.0, 0.0, 0.0, 1.6137593111953585E9, 2021-02-19 16:28:31.195
7.0, -12549.990234375, 20048.865234375, -13997.9130859375, 136836.796875, -187500.015625, -165584.84375, -187500.015625, -187500.015625, -0.09000000357627869, -0.628000020980835, 0.7820000648498535, 192.0, 0.0, 0.0, 0.0, 0.0, 0.0, 0.0, 0.0, 0.0, 0.0, 1.6137593113526664E9, 2021-02-19 16:28:31.352
8.0, -12674.35546875, 20177.052734375, -13873.75, 136959.765625, -187500.015625, -167019.421875, -187500.015625, -187500.015625, -0.07800000160932541, -0.6320000290870667, 0.7720000147819519, 192.0, 253.0, 144.0, 236.0, 64.0, 24.0, 32.0, 0.0, 0.0, 0.0, 1.6137593113596208E9, 2021-02-19 16:28:31.359
60.0, -12400.61328125, 19967.796875, -14101.9384765625, 136763.09375, -187500.015625, -164390.140625, -187500.015625, -187500.015625, -0.07800000160932541, -0.6320000290870667, 0.7720000147819519, 192.0, 0.0, 0.0, 0.0, 0.0, 0.0, 0.0, 0.0, 0.0, 0.0, 1.6137593114197676E9, 2021-02-19 16:28:31.419
44.0, -12479.3583984375, 19924.1875, -14133.9912109375, 136713.5, -187500.015625, -165678.328125, -187500.015625, -187500.015625, -0.07800000160932541, -0.6320000290870667, 0.7720000147819519, 192.0, 0.0, 0.0, 0.0, 0.0, 0.0, 0.0, 0.0, 0.0, 0.0, 1.61375931251191E9, 2021-02-19 16:28:32.511
114.0, -12336.5751953125, 20091.06640625, -13999.232421875, 136845.828125, -187500.015625, -164459.546875, -187500.015625, -187500.015625, -0.07800000160932541, -0.6320000290870667, 0.7720000147819519, 192.0, 0.0, 0.0, 0.0, 0.0, 0.0, 0.0, 0.0, 0.0, 0.0, 1.6137593127591753E9, 2021-02-19 16:28:32.759
112.0, -12663.9169921875, 20203.65234375, -13895.1630859375, 136943.171875, -187500.015625, -164553.40625, -187500.015625, -187500.015625, -0.07800000160932541, -0.6320000290870667, 0.7720000147819519, 192.0, 0.0, 0.0, 0.0, 0.0, 0.0, 0.0, 0.0, 0.0, 0.0, 1.6137593127841785E9, 2021-02-19 16:28:32.784
229.0, -12849.861328125, 20199.046875, -13934.4345703125, 136798.328125, -187500.015625, -158780.78125, -187500.015625, -187500.015625, -0.07800000160932541, -0.6320000290870667, 0.7720000147819519, 192.0, 0.0, 0.0, 0.0, 0.0, 0.0, 0.0, 0.0, 0.0, 0.0, 1.6137593127912855E9, 2021-02-19 16:28:32.791
151.0, -12611.61328125, 19973.830078125, -14118.5009765625, 136459.875, -187500.015625, -154724.53125, -187500.015625, -187500.015625, -0.07800000160932541, -0.6320000290870667, 0.7720000147819519, 192.0, 0.0, 0.0, 0.0, 0.0, 0.0, 0.0, 0.0, 0.0, 0.0, 1.613759312879328E9, 2021-02-19 16:28:32.879
212.0, -12697.66796875, 20192.36328125, -13913.87109375, 136646.5625, -187500.015625, -154709.828125, -187500.015625, -187500.015625, -0.07800000160932541, -0.6320000290870667, 0.7720000147819519, 192.0, 0.0, 0.0, 0.0, 0.0, 0.0, 0.0, 0.0, 0.0, 0.0, 1.6137593130605044E9, 2021-02-19 16:28:33.060
149.0, -12828.984375, 20190.955078125, -13905.265625, 136676.046875, -187500.015625, -156695.71875, -187500.015625, -187500.015625, -0.07800000160932541, -0.6320000290870667, 0.7720000147819519, 192.0, 0.0, 0.0, 0.0, 0.0, 0.0, 0.0, 0.0, 0.0, 0.0, 1.6137593130656452E9, 2021-02-19 16:28:33.065
191.0, -12748.7861328125, 20197.572265625, -13913.2001953125, 136668.3125, -187500.015625, -154893.515625, -187500.015625, -187500.015625, -0.07800000160932541, -0.6320000290870667, 0.7720000147819519, 192.0, 0.0, 0.0, 0.0, 0.0, 0.0, 0.0, 0.0, 0.0, 0.0, 1.6137593132509215E9, 2021-02-19 16:28:33.250
46.0, -12787.365234375, 20091.982421875, -14023.4619140625, 136468.296875, -187500.015625, -150006.890625, -187500.015625, -187500.015625, -0.07800000160932541, -0.6320000290870667, 0.7720000147819519, 192.0, 0.0, 0.0, 0.0, 0.0, 0.0, 0.0, 0.0, 0.0, 0.0, 1.613759313295876E9, 2021-02-19 16:28:33.295
47.0, -12881.064453125, 20223.72265625, -13895.4306640625, 136599.1875, -187500.015625, -151297.96875, -187500.015625, -187500.015625, -0.08800000697374344, -0.64000004529953, 0.7640000581741333, 192.0, 253.0, 64.0, 236.0, 0.0, 23.0, 224.0, 0.0, 0.0, 0.0, 1.613759313330864E9, 2021-02-19 16:28:33.330
48.0, -12641.9677734375, 20144.396484375, -13970.4208984375, 136526.0, -187500.015625, -151469.0, -187500.015625, -187500.015625, -0.08800000697374344, -0.64000004529953, 0.7640000581741333, 192.0, 0.0, 0.0, 0.0, 0.0, 0.0, 0.0, 0.0, 0.0, 0.0, 1.613759313337898E9, 2021-02-19 16:28:33.337
94.0, -12733.1845703125, 20164.9375, -13971.2255859375, 136508.265625, -187500.015625, -146864.046875, -187500.015625, -187500.015625, -0.08800000697374344, -0.64000004529953, 0.7640000581741333, 192.0, 0.0, 0.0, 0.0, 0.0, 0.0, 0.0, 0.0, 0.0, 0.0, 1.6137593133588233E9, 2021-02-19 16:28:33.358
50.0, -12774.267578125, 20071.44140625, -14041.1416015625, 136445.609375, -187500.015625, -149778.9375, -187500.015625, -187500.015625, -0.08800000697374344, -0.64000004529953, 0.7640000581741333, 192.0, 0.0, 0.0, 0.0, 0.0, 0.0, 0.0, 0.0, 0.0, 0.0, 1.6137593133628712E9, 2021-02-19 16:28:33.362
51.0, -12897.939453125, 20228.529296875, -13888.970703125, 136601.40625, -187500.015625, -151062.734375, -187500.015625, -187500.015625, -0.08800000697374344, -0.64000004529953, 0.7640000581741333, 192.0, 0.0, 0.0, 0.0, 0.0, 0.0, 0.0, 0.0, 0.0, 0.0, 1.6137593134169068E9, 2021-02-19 16:28:33.416
92.0, -12886.5625, 20112.478515625, -14024.0205078125, 136448.65625, -187500.015625, -145393.984375, -187500.015625, -187500.015625, -0.08800000697374344, -0.64000004529953, 0.7640000581741333, 192.0, 0.0, 0.0, 0.0, 0.0, 0.0, 0.0, 0.0, 0.0, 0.0, 1.6137593134519722E9, 2021-02-19 16:28:33.451
53.0, -12546.615234375, 20022.22265625, -14090.8525390625, 136405.09375, -187500.015625, -150000.515625, -187500.015625, -187500.015625, -0.08800000697374344, -0.64000004529953, 0.7640000581741333, 192.0, 0.0, 0.0, 0.0, 0.0, 0.0, 0.0, 0.0, 0.0, 0.0, 1.613759313468002E9, 2021-02-19 16:28:33.468
127.0, -12766.421875, 20258.837890625, -13877.125, 136568.5, -187500.015625, -155492.28125, -187500.015625, -187500.015625, -0.08800000697374344, -0.64000004529953, 0.7640000581741333, 192.0, 0.0, 0.0, 0.0, 0.0, 0.0, 0.0, 0.0, 0.0, 0.0, 1.6137593134930587E9, 2021-02-19 16:28:33.493
128.0, -12583.9873046875, 20084.517578125, -14048.115234375, 136397.515625, -187500.015625, -154354.34375, -187500.015625, -187500.015625, -0.08800000697374344, -0.64000004529953, 0.7640000581741333, 192.0, 0.0, 0.0, 0.0, 0.0, 0.0, 0.0, 0.0, 0.0, 0.0, 1.6137593134970095E9, 2021-02-19 16:28:33.497
129.0, -12710.453125, 20058.1640625, -14075.4296875, 136358.21875, -187500.015625, -153635.140625, -187500.015625, -187500.015625, -0.08800000697374344, -0.64000004529953, 0.7640000581741333, 192.0, 0.0, 0.0, 0.0, 0.0, 0.0, 0.0, 0.0, 0.0, 0.0, 1.6137593135000887E9, 2021-02-19 16:28:33.500
130.0, -12946.1748046875, 20217.330078125, -13921.1572265625, 136512.0, -187500.015625, -154756.75, -187500.015625, -187500.015625, -0.08800000697374344, -0.64000004529953, 0.7640000581741333, 192.0, 0.0, 0.0, 0.0, 0.0, 0.0, 0.0, 0.0, 0.0, 0.0, 1.6137593135051794E9, 2021-02-19 16:28:33.505
131.0, -12816.9814453125, 20246.767578125, -13890.0888671875, 136549.21875, -187500.015625, -155657.546875, -187500.015625, -187500.015625, -0.08800000697374344, -0.64000004529953, 0.7640000581741333, 192.0, 0.0, 0.0, 0.0, 0.0, 0.0, 0.0, 0.0, 0.0, 0.0, 1.6137593135100307E9, 2021-02-19 16:28:33.510
132.0, -12604.05859375, 20105.482421875, -14028.2001953125, 136411.75, -187500.015625, -154722.875, -187500.015625, -187500.015625, -0.08800000697374344, -0.64000004529953, 0.7640000581741333, 192.0, 0.0, 0.0, 0.0, 0.0, 0.0, 0.0, 0.0, 0.0, 0.0, 1.6137593135151062E9, 2021-02-19 16:28:33.515
133.0, -12643.2861328125, 20059.482421875, -14074.6025390625, 136356.046875, -187500.015625, -153753.625, -187500.015625, -187500.015625, -0.08800000697374344, -0.64000004529953, 0.7640000581741333, 192.0, 0.0, 0.0, 0.0, 0.0, 0.0, 0.0, 0.0, 0.0, 0.0, 1.6137593135301173E9, 2021-02-19 16:28:33.530
134.0, -12912.7587890625, 20197.7734375, -13941.609375, 136481.25, -187500.015625, -154636.0, -187500.015625, -187500.015625, -0.08800000697374344, -0.64000004529953, 0.7640000581741333, 192.0, 0.0, 0.0, 0.0, 0.0, 0.0, 0.0, 0.0, 0.0, 0.0, 1.6137593135351844E9, 2021-02-19 16:28:33.535
135.0, -12841.724609375, 20283.26953125, -13854.2587890625, 136568.96875, -187500.015625, -155774.375, -187500.015625, -187500.015625, -0.08800000697374344, -0.64000004529953, 0.7640000581741333, 192.0, 0.0, 0.0, 0.0, 0.0, 0.0, 0.0, 0.0, 0.0, 0.0, 1.6137593135391333E9, 2021-02-19 16:28:33.539
136.0, -12630.2998046875, 20119.498046875, -14013.3134765625, 136412.46875, -187500.015625, -155131.46875, -187500.015625, -187500.015625, -0.09600000083446503, -0.64000004529953, 0.7580000162124634, 192.0, 253.0, 0.0, 236.0, 0.0, 23.0, 176.0, 0.0, 0.0, 0.0, 1.6137593135601556E9, 2021-02-19 16:28:33.560
137.0, -12635.75390625, 20024.099609375, -14112.689453125, 136310.75, -187500.015625, -153980.765625, -187500.015625, -187500.015625, -0.09600000083446503, -0.64000004529953, 0.7580000162124634, 192.0, 0.0, 0.0, 0.0, 0.0, 0.0, 0.0, 0.0, 0.0, 0.0, 1.613759313563128E9, 2021-02-19 16:28:33.563
138.0, -12889.4013671875, 20197.884765625, -13947.33203125, 136475.671875, -187500.015625, -154638.375, -187500.015625, -187500.015625, -0.09600000083446503, -0.64000004529953, 0.7580000162124634, 192.0, 0.0, 0.0, 0.0, 0.0, 0.0, 0.0, 0.0, 0.0, 0.0, 1.613759313567324E9, 2021-02-19 16:28:33.567
139.0, -12860.232421875, 20342.12109375, -13806.2919921875, 136622.109375, -187500.015625, -156027.359375, -187500.015625, -187500.015625, -0.09600000083446503, -0.64000004529953, 0.7580000162124634, 192.0, 0.0, 0.0, 0.0, 0.0, 0.0, 0.0, 0.0, 0.0, 0.0, 1.6137593135701456E9, 2021-02-19 16:28:33.570
140.0, -12637.0947265625, 20194.15234375, -13948.2705078125, 136478.03125, -187500.015625, -155686.796875, -187500.015625, -187500.015625, -0.09600000083446503, -0.64000004529953, 0.7580000162124634, 192.0, 0.0, 0.0, 0.0, 0.0, 0.0, 0.0, 0.0, 0.0, 0.0, 1.6137593135771282E9, 2021-02-19 16:28:33.577
141.0, -12600.7060546875, 20059.59375, -14076.1669921875, 136341.6875, -187500.015625, -154467.671875, -187500.015625, -187500.015625, -0.09600000083446503, -0.64000004529953, 0.7580000162124634, 192.0, 0.0, 0.0, 0.0, 0.0, 0.0, 0.0, 0.0, 0.0, 0.0, 1.6137593135803423E9, 2021-02-19 16:28:33.580
142.0, -12859.9189453125, 20175.95703125, -13963.8046875, 136446.078125, -187500.015625, -154812.515625, -187500.015625, -187500.015625, -0.09600000083446503, -0.64000004529953, 0.7580000162124634, 192.0, 0.0, 0.0, 0.0, 0.0, 0.0, 0.0, 0.0, 0.0, 0.0, 1.6137593135831103E9, 2021-02-19 16:28:33.583
143.0, -12935.826171875, 20308.1015625, -13834.65625, 136581.875, -187500.015625, -156249.953125, -187500.015625, -187500.015625, -0.09600000083446503, -0.64000004529953, 0.7580000162124634, 192.0, 0.0, 0.0, 0.0, 0.0, 0.0, 0.0, 0.0, 0.0, 0.0, 1.6137593135872529E9, 2021-02-19 16:28:33.587
144.0, -12683.5859375, 20236.44140625, -13900.99609375, 136517.453125, -187500.015625, -156578.125, -187500.015625, -187500.015625, -0.09600000083446503, -0.64000004529953, 0.7580000162124634, 192.0, 0.0, 0.0, 0.0, 0.0, 0.0, 0.0, 0.0, 0.0, 0.0, 1.6137593135901377E9, 2021-02-19 16:28:33.590
145.0, -12593.3525390625, 20079.755859375, -14054.28515625, 136362.78125, -187500.015625, -155406.671875, -187500.015625, -187500.015625, -0.09600000083446503, -0.64000004529953, 0.7580000162124634, 192.0, 0.0, 0.0, 0.0, 0.0, 0.0, 0.0, 0.0, 0.0, 0.0, 1.6137593135932882E9, 2021-02-19 16:28:33.593
146.0, -12830.2138671875, 20130.830078125, -14007.3232421875, 136401.421875, -187500.015625, -155383.75, -187500.015625, -187500.015625, -0.10000000149011612, -0.6460000276565552, 0.7620000243186951, 192.0, 252.0, 224.0, 235.0, 208.0, 23.0, 208.0, 0.0, 0.0, 0.0, 1.613759313598124E9, 2021-02-19 16:28:33.598
147.0, -12962.357421875, 20330.431640625, -13811.298828125, 136597.203125, -187500.015625, -156943.859375, -187500.015625, -187500.015625, -0.10000000149011612, -0.6460000276565552, 0.7620000243186951, 192.0, 0.0, 0.0, 0.0, 0.0, 0.0, 0.0, 0.0, 0.0, 0.0, 1.6137593136011543E9, 2021-02-19 16:28:33.601
148.0, -12738.8173828125, 20299.31640625, -13841.5185546875, 136574.265625, -187500.015625, -157459.453125, -187500.015625, -187500.015625, -0.10000000149011612, -0.6460000276565552, 0.7620000243186951, 192.0, 0.0, 0.0, 0.0, 0.0, 0.0, 0.0, 0.0, 0.0, 0.0, 1.6137593136041503E9, 2021-02-19 16:28:33.604
149.0, -12588.3681640625, 20100.341796875, -14035.4423828125, 136380.5, -187500.015625, -156347.03125, -187500.015625, -187500.015625, -0.10000000149011612, -0.6460000276565552, 0.7620000243186951, 192.0, 0.0, 0.0, 0.0, 0.0, 0.0, 0.0, 0.0, 0.0, 0.0, 1.6137593136082606E9, 2021-02-19 16:28:33.608
159.0, -12907.70703125, 20264.470703125, -13883.6962890625, 136523.671875, -187500.015625, -157980.203125, -187500.015625, -187500.015625, -0.10000000149011612, -0.6460000276565552, 0.7620000243186951, 192.0, 0.0, 0.0, 0.0, 0.0, 0.0, 0.0, 0.0, 0.0, 0.0, 1.6137593136111517E9, 2021-02-19 16:28:33.611
151.0, -12964.7490234375, 20303.294921875, -13841.048828125, 136568.65625, -187500.015625, -157436.421875, -187500.015625, -187500.015625, -0.10000000149011612, -0.6460000276565552, 0.7620000243186951, 192.0, 0.0, 0.0, 0.0, 0.0, 0.0, 0.0, 0.0, 0.0, 0.0, 1.6137593136193511E9, 2021-02-19 16:28:33.619
156.0, -12817.763671875, 20323.970703125, -13818.7646484375, 136592.6875, -187500.015625, -158864.375, -187500.015625, -187500.015625, -0.10000000149011612, -0.6460000276565552, 0.7620000243186951, 192.0, 0.0, 0.0, 0.0, 0.0, 0.0, 0.0, 0.0, 0.0, 0.0, 1.6137593136222484E9, 2021-02-19 16:28:33.622
153.0, -12618.408203125, 20098.978515625, -14035.7548828125, 136380.6875, -187500.015625, -157288.296875, -187500.015625, -187500.015625, -0.10000000149011612, -0.6460000276565552, 0.7620000243186951, 192.0, 0.0, 0.0, 0.0, 0.0, 0.0, 0.0, 0.0, 0.0, 0.0, 1.6137593136251855E9, 2021-02-19 16:28:33.625
154.0, -12738.6611328125, 20059.37109375, -14079.609375, 136330.421875, -187500.015625, -156595.3125, -187500.015625, -187500.015625, -0.10000000149011612, -0.6460000276565552, 0.7620000243186951, 192.0, 0.0, 0.0, 0.0, 0.0, 0.0, 0.0, 0.0, 0.0, 0.0, 1.613759313629249E9, 2021-02-19 16:28:33.629
157.0, -12610.80859375, 20150.56640625, -13990.6943359375, 136426.34375, -187500.015625, -158054.796875, -187500.015625, -187500.015625, -0.10000000149011612, -0.6460000276565552, 0.7620000243186951, 192.0, 0.0, 0.0, 0.0, 0.0, 0.0, 0.0, 0.0, 0.0, 0.0, 1.6137593136324935E9, 2021-02-19 16:28:33.632
160.0, -12841.814453125, 20333.806640625, -13814.025390625, 136602.640625, -187500.015625, -159243.609375, -187500.015625, -187500.015625, -0.10000000149011612, -0.6460000276565552, 0.7620000243186951, 192.0, 0.0, 0.0, 0.0, 0.0, 0.0, 0.0, 0.0, 0.0, 0.0, 1.6137593136352236E9, 2021-02-19 16:28:33.635
161.0, -12629.0029296875, 20187.669921875, -13955.19921875, 136462.09375, -187500.015625, -158685.109375, -187500.015625, -187500.015625, -0.10000000149011612, -0.6460000276565552, 0.7620000243186951, 192.0, 0.0, 0.0, 0.0, 0.0, 0.0, 0.0, 0.0, 0.0, 0.0, 1.6137593136402223E9, 2021-02-19 16:28:33.640
173.0, -12826.8837890625, 20221.623046875, -13917.4248046875, 136478.140625, -187500.015625, -160242.375, -187500.015625, -187500.015625, -0.10000000149011612, -0.6460000276565552, 0.7620000243186951, 192.0, 0.0, 0.0, 0.0, 0.0, 0.0, 0.0, 0.0, 0.0, 0.0, 1.6137593136433766E9, 2021-02-19 16:28:33.643
163.0, -12930.4833984375, 20189.48046875, -13955.3779296875, 136435.15625, -187500.015625, -158057.421875, -187500.015625, -187500.015625, -0.10000000149011612, -0.6460000276565552, 0.7620000243186951, 192.0, 0.0, 0.0, 0.0, 0.0, 0.0, 0.0, 0.0, 0.0, 0.0, 1.6137593136463552E9, 2021-02-19 16:28:33.646
164.0, -12968.34765625, 20336.533203125, -13810.0029296875, 136582.9375, -187500.015625, -159510.25, -187500.015625, -187500.015625, -0.10000000149011612, -0.6460000276565552, 0.7620000243186951, 192.0, 0.0, 0.0, 0.0, 0.0, 0.0, 0.0, 0.0, 0.0, 0.0, 1.6137593136491752E9, 2021-02-19 16:28:33.649
171.0, -12873.8671875, 20122.55859375, -14021.13671875, 136367.828125, -187500.015625, -158319.28125, -187500.015625, -187500.015625, -0.10000000149011612, -0.6460000276565552, 0.7620000243186951, 192.0, 0.0, 0.0, 0.0, 0.0, 0.0, 0.0, 0.0, 0.0, 0.0, 1.6137593136532748E9, 2021-02-19 16:28:33.653
179.0, -12764.5224609375, 20082.751953125, -14047.8701171875, 136325.390625, -187500.015625, -159043.078125, -187500.015625, -187500.015625, -0.10000000149011612, -0.6460000276565552, 0.7620000243186951, 192.0, 0.0, 0.0, 0.0, 0.0, 0.0, 0.0, 0.0, 0.0, 0.0, 1.613759313656355E9, 2021-02-19 16:28:33.656
169.0, -12746.931640625, 20231.189453125, -13912.9990234375, 136483.015625, -187500.015625, -159660.40625, -187500.015625, -187500.015625, -0.10000000149011612, -0.6460000276565552, 0.7620000243186951, 192.0, 0.0, 0.0, 0.0, 0.0, 0.0, 0.0, 0.0, 0.0, 0.0, 1.6137593136594255E9, 2021-02-19 16:28:33.659
174.0, -12686.4921875, 20041.556640625, -14093.466796875, 136300.015625, -187500.015625, -159073.984375, -187500.015625, -187500.015625, -0.10000000149011612, -0.6460000276565552, 0.7620000243186951, 192.0, 0.0, 0.0, 0.0, 0.0, 0.0, 0.0, 0.0, 0.0, 0.0, 1.613759313663292E9, 2021-02-19 16:28:33.663
175.0, -12838.193359375, 20051.279296875, -14086.5830078125, 136294.140625, -187500.015625, -158575.96875, -187500.015625, -187500.015625, -0.10000000149011612, -0.6440000534057617, 0.7580000162124634, 192.0, 252.0, 224.0, 235.0, 224.0, 23.0, 176.0, 0.0, 0.0, 0.0, 1.6137593136663144E9, 2021-02-19 16:28:33.666
176.0, -13032.9443359375, 20251.9765625, -13889.75390625, 136486.140625, -187500.015625, -159859.8125, -187500.015625, -187500.015625, -0.10000000149011612, -0.6440000534057617, 0.7580000162124634, 192.0, 0.0, 0.0, 0.0, 0.0, 0.0, 0.0, 0.0, 0.0, 0.0, 1.613759313669423E9, 2021-02-19 16:28:33.669
177.0, -12844.787109375, 20289.080078125, -13846.994140625, 136534.9375, -187500.015625, -160692.140625, -187500.015625, -187500.015625, -0.10000000149011612, -0.6440000534057617, 0.7580000162124634, 192.0, 0.0, 0.0, 0.0, 0.0, 0.0, 0.0, 0.0, 0.0, 0.0, 1.6137593136724732E9, 2021-02-19 16:28:33.672
180.0, -13006.994140625, 20265.744140625, -13869.3466796875, 136499.34375, -187500.015625, -160224.296875, -187500.015625, -187500.015625, -0.10000000149011612, -0.6440000534057617, 0.7580000162124634, 192.0, 0.0, 0.0, 0.0, 0.0, 0.0, 0.0, 0.0, 0.0, 0.0, 1.613759313676271E9, 2021-02-19 16:28:33.676
181.0, -12897.3134765625, 20322.517578125, -13812.05859375, 136561.390625, -187500.015625, -161418.703125, -187500.015625, -187500.015625, -0.10000000149011612, -0.6440000534057617, 0.7580000162124634, 192.0, 0.0, 0.0, 0.0, 0.0, 0.0, 0.0, 0.0, 0.0, 0.0, 1.61375931367928E9, 2021-02-19 16:28:33.679
182.0, -12684.4130859375, 20172.783203125, -13957.2333984375, 136415.125, -187500.015625, -160786.6875, -187500.015625, -187500.015625, -0.10000000149011612, -0.6440000534057617, 0.7580000162124634, 192.0, 0.0, 0.0, 0.0, 0.0, 0.0, 0.0, 0.0, 0.0, 0.0, 1.6137593136826403E9, 2021-02-19 16:28:33.682
183.0, -12723.23828125, 20046.8984375, -14082.537109375, 136285.15625, -187500.015625, -159864.453125, -187500.015625, -187500.015625, -0.10000000149011612, -0.6440000534057617, 0.7580000162124634, 192.0, 0.0, 0.0, 0.0, 0.0, 0.0, 0.0, 0.0, 0.0, 0.0, 1.6137593136855128E9, 2021-02-19 16:28:33.685
184.0, -13018.125, 20178.3046875, -13961.79296875, 136403.734375, -187500.015625, -160777.671875, -187500.015625, -187500.015625, -0.10000000149011612, -0.6440000534057617, 0.7580000162124634, 192.0, 0.0, 0.0, 0.0, 0.0, 0.0, 0.0, 0.0, 0.0, 0.0, 1.6137593136892605E9, 2021-02-19 16:28:33.689
185.0, -12966.7158203125, 20271.109375, -13864.4287109375, 136501.515625, -187500.015625, -162152.734375, -187500.015625, -187500.015625, -0.09000000357627869, -0.6420000195503235, 0.7560000419616699, 192.0, 253.0, 48.0, 235.0, 240.0, 23.0, 160.0, 0.0, 0.0, 0.0, 1.613759313717382E9, 2021-02-19 16:28:33.717
186.0, -12718.1201171875, 20162.009765625, -13966.1962890625, 136400.421875, -187500.015625, -161785.875, -187500.015625, -187500.015625, -0.09000000357627869, -0.6420000195503235, 0.7560000419616699, 192.0, 0.0, 0.0, 0.0, 0.0, 0.0, 0.0, 0.0, 0.0, 0.0, 1.6137593137202952E9, 2021-02-19 16:28:33.720
187.0, -12673.55078125, 20033.64453125, -14096.6416015625, 136267.671875, -187500.015625, -160655.03125, -187500.015625, -187500.015625, -0.09000000357627869, -0.6420000195503235, 0.7560000419616699, 192.0, 0.0, 0.0, 0.0, 0.0, 0.0, 0.0, 0.0, 0.0, 0.0, 1.6137593137233412E9, 2021-02-19 16:28:33.723
188.0, -12957.7978515625, 20157.2265625, -13983.33984375, 136377.375, -187500.015625, -161134.296875, -187500.015625, -187500.015625, -0.09000000357627869, -0.6420000195503235, 0.7560000419616699, 192.0, 0.0, 0.0, 0.0, 0.0, 0.0, 0.0, 0.0, 0.0, 0.0, 1.6137593137423441E9, 2021-02-19 16:28:33.742
189.0, -12963.564453125, 20323.435546875, -13817.8251953125, 136546.328125, -187500.015625, -162652.875, -187500.015625, -187500.015625, -0.09000000357627869, -0.6420000195503235, 0.7560000419616699, 192.0, 0.0, 0.0, 0.0, 0.0, 0.0, 0.0, 0.0, 0.0, 0.0, 1.613759313746359E9, 2021-02-19 16:28:33.746
190.0, -12738.951171875, 20221.421875, -13915.927734375, 136451.671875, -187500.015625, -162567.046875, -187500.015625, -187500.015625, -0.09000000357627869, -0.6420000195503235, 0.7560000419616699, 192.0, 0.0, 0.0, 0.0, 0.0, 0.0, 0.0, 0.0, 0.0, 0.0, 1.6137593138055015E9, 2021-02-19 16:28:33.805
191.0, -12651.8466796875, 20074.078125, -14062.5546875, 136304.421875, -187500.015625, -161311.234375, -187500.015625, -187500.015625, -0.09000000357627869, -0.6420000195503235, 0.7560000419616699, 192.0, 0.0, 0.0, 0.0, 0.0, 0.0, 0.0, 0.0, 0.0, 0.0, 1.6137593138094573E9, 2021-02-19 16:28:33.809
192.0, -12835.01953125, 20212.66015625, -13931.8642578125, 136435.109375, -187500.015625, -161732.765625, -187500.015625, -187500.015625, -0.09000000357627869, -0.6420000195503235, 0.7560000419616699, 192.0, 0.0, 0.0, 0.0, 0.0, 0.0, 0.0, 0.0, 0.0, 0.0, 1.613759313812425E9, 2021-02-19 16:28:33.812
193.0, -12920.224609375, 20382.48828125, -13763.9580078125, 136601.421875, -187500.015625, -163303.734375, -187500.015625, -187500.015625, -0.09000000357627869, -0.6420000195503235, 0.7560000419616699, 192.0, 0.0, 0.0, 0.0, 0.0, 0.0, 0.0, 0.0, 0.0, 0.0, 1.6137593138234253E9, 2021-02-19 16:28:33.823
194.0, -12712.978515625, 20279.201171875, -13865.412109375, 136502.34375, -187500.015625, -163562.59375, -187500.015625, -187500.015625, -0.09000000357627869, -0.6420000195503235, 0.7560000419616699, 192.0, 0.0, 0.0, 0.0, 0.0, 0.0, 0.0, 0.0, 0.0, 0.0, 1.613759313826484E9, 2021-02-19 16:28:33.826
195.0, -12606.673828125, 20104.25390625, -14035.0849609375, 136335.828125, -187500.015625, -162416.28125, -187500.015625, -187500.015625, -0.10200000554323196, -0.64000004529953, 0.7480000257492065, 192.0, 252.0, 208.0, 236.0, 0.0, 23.0, 96.0, 0.0, 0.0, 0.0, 1.6137593138295827E9, 2021-02-19 16:28:33.829
196.0, -12808.755859375, 20167.0625, -13973.37109375, 136390.921875, -187500.015625, -162299.65625, -187500.015625, -187500.015625, -0.10200000554323196, -0.64000004529953, 0.7480000257492065, 192.0, 0.0, 0.0, 0.0, 0.0, 0.0, 0.0, 0.0, 0.0, 0.0, 1.6137593138324351E9, 2021-02-19 16:28:33.832
197.0, -12978.40625, 20349.630859375, -13796.1669921875, 136570.03125, -187500.015625, -163839.109375, -187500.015625, -187500.015625, -0.10200000554323196, -0.64000004529953, 0.7480000257492065, 192.0, 0.0, 0.0, 0.0, 0.0, 0.0, 0.0, 0.0, 0.0, 0.0, 1.6137593138366573E9, 2021-02-19 16:28:33.836
198.0, -12800.7763671875, 20301.396484375, -13843.3740234375, 136529.71875, -187500.015625, -164538.765625, -187500.015625, -187500.015625, -0.10200000554323196, -0.64000004529953, 0.7480000257492065, 192.0, 0.0, 0.0, 0.0, 0.0, 0.0, 0.0, 0.0, 0.0, 0.0, 1.6137593138395412E9, 2021-02-19 16:28:33.839
199.0, -12665.81640625, 20091.46875, -14049.724609375, 136321.921875, -187500.015625, -163529.015625, -187500.015625, -187500.015625, -0.10200000554323196, -0.64000004529953, 0.7480000257492065, 192.0, 0.0, 0.0, 0.0, 0.0, 0.0, 0.0, 0.0, 0.0, 0.0, 1.613759313842636E9, 2021-02-19 16:28:33.842
200.0, -12819.9990234375, 20108.41015625, -14033.095703125, 136328.921875, -187500.015625, -163117.90625, -187500.015625, -187500.015625, -0.10200000554323196, -0.64000004529953, 0.7480000257492065, 192.0, 0.0, 0.0, 0.0, 0.0, 0.0, 0.0, 0.0, 0.0, 0.0, 1.6137593138474505E9, 2021-02-19 16:28:33.847
201.0, -13010.8603515625, 20324.26171875, -13823.0556640625, 136542.359375, -187500.015625, -164575.265625, -187500.015625, -187500.015625, -0.10200000554323196, -0.64000004529953, 0.7480000257492065, 192.0, 0.0, 0.0, 0.0, 0.0, 0.0, 0.0, 0.0, 0.0, 0.0, 1.6137593138504488E9, 2021-02-19 16:28:33.850
235.0, -12797.0888671875, 20227.970703125, -13924.689453125, 136446.015625, -187500.015625, -165830.3125, -187500.015625, -187500.015625, -0.10200000554323196, -0.64000004529953, 0.7480000257492065, 192.0, 0.0, 0.0, 0.0, 0.0, 0.0, 0.0, 0.0, 0.0, 0.0, 1.6137593138535464E9, 2021-02-19 16:28:33.853
203.0, -12668.923828125, 20140.015625, -14005.3115234375, 136364.875, -187500.015625, -164883.375, -187500.015625, -187500.015625, -0.10200000554323196, -0.64000004529953, 0.7480000257492065, 192.0, 0.0, 0.0, 0.0, 0.0, 0.0, 0.0, 0.0, 0.0, 0.0, 1.6137593138564591E9, 2021-02-19 16:28:33.856
204.0, -12773.26171875, 20101.638671875, -14041.9462890625, 136321.15625, -187500.015625, -164254.8125, -187500.015625, -187500.015625, -0.10200000554323196, -0.64000004529953, 0.7480000257492065, 192.0, 0.0, 0.0, 0.0, 0.0, 0.0, 0.0, 0.0, 0.0, 0.0, 1.6137593138606074E9, 2021-02-19 16:28:33.860
231.0, -12820.625, 20253.00390625, -13902.203125, 136471.046875, -187500.015625, -166184.96875, -187500.015625, -187500.015625, -0.10200000554323196, -0.64000004529953, 0.7480000257492065, 192.0, 0.0, 0.0, 0.0, 0.0, 0.0, 0.0, 0.0, 0.0, 0.0, 1.613759313863458E9, 2021-02-19 16:28:33.863
206.0, -12914.099609375, 20407.544921875, -13739.818359375, 136631.6875, -187500.015625, -167025.328125, -187500.015625, -187500.015625, -0.10200000554323196, -0.64000004529953, 0.7480000257492065, 192.0, 0.0, 0.0, 0.0, 0.0, 0.0, 0.0, 0.0, 0.0, 0.0, 1.613759313866541E9, 2021-02-19 16:28:33.866
229.0, -12653.12109375, 20006.173828125, -14145.033203125, 136225.625, -187500.015625, -164331.859375, -187500.015625, -187500.015625, -0.10200000554323196, -0.64000004529953, 0.7480000257492065, 192.0, 0.0, 0.0, 0.0, 0.0, 0.0, 0.0, 0.0, 0.0, 0.0, 1.6137593138705363E9, 2021-02-19 16:28:33.870
208.0, -12645.9013671875, 20099.0, -14043.98046875, 136325.65625, -187500.015625, -165516.0625, -187500.015625, -187500.015625, -0.10200000554323196, -0.64000004529953, 0.7480000257492065, 192.0, 0.0, 0.0, 0.0, 0.0, 0.0, 0.0, 0.0, 0.0, 0.0, 1.6137593138934815E9, 2021-02-19 16:28:33.893
209.0, -12901.671875, 20253.96484375, -13893.93359375, 136470.921875, -187500.015625, -166227.859375, -187500.015625, -187500.015625, -0.10200000554323196, -0.64000004529953, 0.7480000257492065, 192.0, 0.0, 0.0, 0.0, 0.0, 0.0, 0.0, 0.0, 0.0, 0.0, 1.6137593138975348E9, 2021-02-19 16:28:33.897
227.0, -12754.93359375, 20278.708984375, -13877.52734375, 136497.8125, -187500.015625, -166468.09375, -187500.015625, -187500.015625, -0.10200000554323196, -0.64000004529953, 0.7480000257492065, 192.0, 0.0, 0.0, 0.0, 0.0, 0.0, 0.0, 0.0, 0.0, 0.0, 1.6137593139186487E9, 2021-02-19 16:28:33.918
211.0, -12636.4912109375, 20174.013671875, -13973.3935546875, 136405.515625, -187500.015625, -166937.3125, -187500.015625, -187500.015625, -0.10200000554323196, -0.64000004529953, 0.7480000257492065, 192.0, 0.0, 0.0, 0.0, 0.0, 0.0, 0.0, 0.0, 0.0, 0.0, 1.6137593139215233E9, 2021-02-19 16:28:33.921
212.0, -12619.212890625, 20017.908203125, -14125.6533203125, 136240.65625, -187500.015625, -165606.421875, -187500.015625, -187500.015625, -0.10200000554323196, -0.64000004529953, 0.7480000257492065, 192.0, 0.0, 0.0, 0.0, 0.0, 0.0, 0.0, 0.0, 0.0, 0.0, 1.61375931392653E9, 2021-02-19 16:28:33.926
219.0, -12682.2451171875, 20214.380859375, -13942.9501953125, 136442.234375, -187500.015625, -166810.21875, -187500.015625, -187500.015625, -0.10200000554323196, -0.64000004529953, 0.7480000257492065, 192.0, 0.0, 0.0, 0.0, 0.0, 0.0, 0.0, 0.0, 0.0, 0.0, 1.6137593139295752E9, 2021-02-19 16:28:33.929
225.0, -12711.0791015625, 20035.34375, -14115.3271484375, 136251.109375, -187500.015625, -164630.765625, -187500.015625, -187500.015625, -0.10200000554323196, -0.64000004529953, 0.7480000257492065, 192.0, 0.0, 0.0, 0.0, 0.0, 0.0, 0.0, 0.0, 0.0, 0.0, 1.6137593139336023E9, 2021-02-19 16:28:33.933
217.0, -12808.4658203125, 20100.3203125, -14052.697265625, 136317.671875, -187500.015625, -165423.890625, -187500.015625, -187500.015625, -0.10200000554323196, -0.64000004529953, 0.7480000257492065, 192.0, 0.0, 0.0, 0.0, 0.0, 0.0, 0.0, 0.0, 0.0, 0.0, 1.6137593139405313E9, 2021-02-19 16:28:33.940
220.0, -12554.7958984375, 20033.48828125, -14119.529296875, 136263.875, -187500.015625, -165435.734375, -187500.015625, -187500.015625, -0.10200000554323196, -0.64000004529953, 0.7480000257492065, 192.0, 0.0, 0.0, 0.0, 0.0, 0.0, 0.0, 0.0, 0.0, 0.0, 1.6137593139455936E9, 2021-02-19 16:28:33.945
240.0, -12475.603515625, 20138.787109375, -14013.6943359375, 136359.65625, -187500.015625, -165335.578125, -187500.015625, -187500.015625, -0.10200000554323196, -0.64000004529953, 0.7480000257492065, 192.0, 0.0, 0.0, 0.0, 0.0, 0.0, 0.0, 0.0, 0.0, 0.0, 1.6137593139485755E9, 2021-02-19 16:28:33.948
236.0, -12602.3828125, 20073.5859375, -14072.9033203125, 136295.765625, -187500.015625, -165214.03125, -187500.015625, -187500.015625, -0.10200000554323196, -0.64000004529953, 0.7480000257492065, 192.0, 0.0, 0.0, 0.0, 0.0, 0.0, 0.0, 0.0, 0.0, 0.0, 1.6137593139817014E9, 2021-02-19 16:28:33.981
237.0, -12537.6298828125, 19987.689453125, -14158.17578125, 136205.140625, -187500.015625, -163858.0625, -187500.015625, -187500.015625, -0.10200000554323196, -0.64000004529953, 0.7480000257492065, 192.0, 0.0, 0.0, 0.0, 0.0, 0.0, 0.0, 0.0, 0.0, 0.0, 1.613759314114771E9, 2021-02-19 16:28:34.114
238.0, -12774.6923828125, 20086.328125, -14069.998046875, 136294.8125, -187500.015625, -164000.0, -187500.015625, -187500.015625, -0.10200000554323196, -0.64000004529953, 0.7480000257492065, 192.0, 0.0, 0.0, 0.0, 0.0, 0.0, 0.0, 0.0, 0.0, 0.0, 1.6137593141177585E9, 2021-02-19 16:28:34.117
241.0, -12345.29296875, 19971.3046875, -14176.6376953125, 136186.96875, -187500.015625, -163955.890625, -187500.015625, -187500.015625, -0.10200000554323196, -0.64000004529953, 0.7480000257492065, 192.0, 0.0, 0.0, 0.0, 0.0, 0.0, 0.0, 0.0, 0.0, 0.0, 1.6137593141208143E9, 2021-02-19 16:28:34.120
242.0, -12543.6201171875, 20107.875, -14043.6455078125, 136310.046875, -187500.015625, -163785.015625, -187500.015625, -187500.015625, -0.10200000554323196, -0.64000004529953, 0.7480000257492065, 192.0, 0.0, 0.0, 0.0, 0.0, 0.0, 0.0, 0.0, 0.0, 0.0, 1.6137593141607945E9, 2021-02-19 16:28:34.160
243.0, -12616.6875, 20261.318359375, -13894.9169921875, 136459.78125, -187500.015625, -165160.65625, -187500.015625, -187500.015625, -0.10200000554323196, -0.64000004529953, 0.7480000257492065, 192.0, 0.0, 0.0, 0.0, 0.0, 0.0, 0.0, 0.0, 0.0, 0.0, 1.6137593141658242E9, 2021-02-19 16:28:34.165
244.0, -12447.9091796875, 20209.955078125, -13945.07421875, 136416.53125, -187500.015625, -165442.578125, -187500.015625, -187500.015625, -0.10000000149011612, -0.6420000195503235, 0.7660000324249268, 192.0, 252.0, 224.0, 235.0, 240.0, 23.0, 240.0, 0.0, 0.0, 0.0, 1.6137593141699536E9, 2021-02-19 16:28:34.169
47.0, -14333.94921875, 20479.13671875, -13696.6787109375, 136634.109375, -187500.015625, -187500.015625, -187500.015625, -187500.015625, -0.0820000022649765, -0.6460000276565552, 0.7740000486373901, 192.0, 253.0, 112.0, 235.0, 208.0, 24.0, 48.0, 0.0, 0.0, 0.0, 1.613759314172809E9, 2021-02-19 16:28:34.172
246.0, -12418.2041015625, 20045.15625, -14103.212890625, 136246.75, -187500.015625, -163717.375, -187500.015625, -187500.015625, -0.0820000022649765, -0.6460000276565552, 0.7740000486373901, 192.0, 0.0, 0.0, 0.0, 0.0, 0.0, 0.0, 0.0, 0.0, 0.0, 1.613759314176908E9, 2021-02-19 16:28:34.176
45.0, -14433.34765625, 20520.935546875, -13661.05078125, 136672.890625, -187500.015625, -187500.015625, -187500.015625, -187500.015625, -0.0820000022649765, -0.6460000276565552, 0.7740000486373901, 192.0, 0.0, 0.0, 0.0, 0.0, 0.0, 0.0, 0.0, 0.0, 0.0, 1.6137593141798198E9, 2021-02-19 16:28:34.179
248.0, -12392.2763671875, 20266.392578125, -13878.2197265625, 136474.03125, -187500.015625, -165700.921875, -187500.015625, -187500.015625, -0.0820000022649765, -0.6460000276565552, 0.7740000486373901, 192.0, 0.0, 0.0, 0.0, 0.0, 0.0, 0.0, 0.0, 0.0, 0.0, 1.613759314183009E9, 2021-02-19 16:28:34.183
249.0, -12188.5849609375, 20116.48046875, -14023.4169921875, 136330.4375, -187500.015625, -164755.265625, -187500.015625, -187500.015625, -0.0820000022649765, -0.6460000276565552, 0.7740000486373901, 192.0, 0.0, 0.0, 0.0, 0.0, 0.0, 0.0, 0.0, 0.0, 0.0, 1.6137593141981058E9, 2021-02-19 16:28:34.198
43.0, -14144.1611328125, 20576.634765625, -13600.1640625, 136737.171875, -187500.015625, -187500.015625, -187500.015625, -187500.015625, -0.0820000022649765, -0.6460000276565552, 0.7740000486373901, 192.0, 0.0, 0.0, 0.0, 0.0, 0.0, 0.0, 0.0, 0.0, 0.0, 1.6137593142018611E9, 2021-02-19 16:28:34.201
40.0, -13867.513671875, 20801.8515625, -13374.6572265625, 136959.390625, -187500.015625, -187500.015625, -187500.015625, -187500.015625, -0.0820000022649765, -0.6460000276565552, 0.7740000486373901, 192.0, 0.0, 0.0, 0.0, 0.0, 0.0, 0.0, 0.0, 0.0, 0.0, 1.6137593142109177E9, 2021-02-19 16:28:34.210
1.0, -12389.3251953125, 20187.669921875, -13963.8720703125, 136395.453125, -187500.015625, -166524.09375, -187500.015625, -187500.015625, -0.0820000022649765, -0.6460000276565552, 0.7740000486373901, 192.0, 0.0, 0.0, 0.0, 0.0, 0.0, 0.0, 0.0, 0.0, 0.0, 1.6137593142148676E9, 2021-02-19 16:28:34.214
253.0, -12252.9580078125, 20173.8125, -13971.0244140625, 136384.53125, -187500.015625, -165923.546875, -187500.015625, -187500.015625, -0.0820000022649765, -0.6460000276565552, 0.7740000486373901, 192.0, 0.0, 0.0, 0.0, 0.0, 0.0, 0.0, 0.0, 0.0, 0.0, 1.6137593142189813E9, 2021-02-19 16:28:34.218
38.0, -13600.5, 21092.6484375, -13089.9853515625, 137252.625, -187500.015625, -187500.015625, -187500.015625, -187500.015625, -0.0820000022649765, -0.6460000276565552, 0.7740000486373901, 192.0, 0.0, 0.0, 0.0, 0.0, 0.0, 0.0, 0.0, 0.0, 0.0, 1.6137593142239387E9, 2021-02-19 16:28:34.223
69.0, -13763.890625, 20190.7109375, -14001.0654296875, 136321.828125, -187500.015625, -187500.015625, -187500.015625, -187500.015625, -0.0820000022649765, -0.6460000276565552, 0.7740000486373901, 192.0, 0.0, 0.0, 0.0, 0.0, 0.0, 0.0, 0.0, 0.0, 0.0, 1.6137593142489326E9, 2021-02-19 16:28:34.248
34.0, -13508.9912109375, 21021.12109375, -13156.4599609375, 137186.53125, -187500.015625, -187500.015625, -187500.015625, -187500.015625, -0.0820000022649765, -0.6460000276565552, 0.7740000486373901, 192.0, 0.0, 0.0, 0.0, 0.0, 0.0, 0.0, 0.0, 0.0, 0.0, 1.6137593142700171E9, 2021-02-19 16:28:34.270
14.0, -12649.34375, 20259.978515625, -13889.8427734375, 136454.625, -187500.015625, -168080.34375, -187500.015625, -187500.015625, -0.0820000022649765, -0.6460000276565552, 0.7740000486373901, 192.0, 0.0, 0.0, 0.0, 0.0, 0.0, 0.0, 0.0, 0.0, 0.0, 1.613759314275108E9, 2021-02-19 16:28:34.275
55.0, -14314.548828125, 20317.890625, -13863.3564453125, 136462.265625, -187500.015625, -187500.015625, -187500.015625, -187500.015625, -0.0820000022649765, -0.6460000276565552, 0.7740000486373901, 192.0, 0.0, 0.0, 0.0, 0.0, 0.0, 0.0, 0.0, 0.0, 0.0, 1.613759314282096E9, 2021-02-19 16:28:34.282
30.0, -13150.3798828125, 20762.087890625, -13401.412109375, 136937.375, -187500.015625, -185844.46875, -187500.015625, -187500.015625, -0.0820000022649765, -0.6460000276565552, 0.7740000486373901, 192.0, 0.0, 0.0, 0.0, 0.0, 0.0, 0.0, 0.0, 0.0, 0.0, 1.61375931428714E9, 2021-02-19 16:28:34.287
67.0, -14066.33203125, 20240.755859375, -13951.66796875, 136370.203125, -187500.015625, -187500.015625, -187500.015625, -187500.015625, -0.10000000149011612, -0.6480000019073486, 0.7540000081062317, 192.0, 252.0, 224.0, 235.0, 192.0, 23.0, 144.0, 0.0, 0.0, 0.0, 1.6137593143119812E9, 2021-02-19 16:28:34.311
53.0, -14403.1279296875, 20405.33203125, -13775.2451171875, 136539.03125, -187500.015625, -187500.015625, -187500.015625, -187500.015625, -0.10000000149011612, -0.6480000019073486, 0.7540000081062317, 192.0, 0.0, 0.0, 0.0, 0.0, 0.0, 0.0, 0.0, 0.0, 0.0, 1.6137593143371725E9, 2021-02-19 16:28:34.337
28.0, -13238.3564453125, 20651.9609375, -13512.880859375, 136818.90625, -187500.015625, -181720.96875, -187500.015625, -187500.015625, -0.10000000149011612, -0.6480000019073486, 0.7540000081062317, 192.0, 0.0, 0.0, 0.0, 0.0, 0.0, 0.0, 0.0, 0.0, 0.0, 1.613759314445144E9, 2021-02-19 16:28:34.445
65.0, -13983.787109375, 20239.83984375, -13949.0751953125, 136373.28125, -187500.015625, -187500.015625, -187500.015625, -187500.015625, -0.10000000149011612, -0.6480000019073486, 0.7540000081062317, 192.0, 0.0, 0.0, 0.0, 0.0, 0.0, 0.0, 0.0, 0.0, 0.0, 1.6137593144523504E9, 2021-02-19 16:28:34.452
26.0, -13009.6533203125, 20635.732421875, -13527.029296875, 136822.421875, -187500.015625, -179946.78125, -187500.015625, -187500.015625, -0.10000000149011612, -0.6480000019073486, 0.7540000081062317, 192.0, 0.0, 0.0, 0.0, 0.0, 0.0, 0.0, 0.0, 0.0, 0.0, 1.613759314455331E9, 2021-02-19 16:28:34.455
17.0, -12921.1181640625, 20509.3125, -13647.9072265625, 136693.265625, -187500.015625, -171701.296875, -187500.015625, -187500.015625, -0.10000000149011612, -0.6480000019073486, 0.7540000081062317, 192.0, 0.0, 0.0, 0.0, 0.0, 0.0, 0.0, 0.0, 0.0, 0.0, 1.6137593144581175E9, 2021-02-19 16:28:34.458
63.0, -14242.083984375, 20301.462890625, -13889.1279296875, 136436.78125, -187500.015625, -187500.015625, -187500.015625, -187500.015625, -0.10000000149011612, -0.6480000019073486, 0.7540000081062317, 192.0, 0.0, 0.0, 0.0, 0.0, 0.0, 0.0, 0.0, 0.0, 0.0, 1.6137593144621687E9, 2021-02-19 16:28:34.462
137.0, -12691.72265625, 19420.111328125, -14800.966796875, 135549.5625, -187500.015625, -78602.3203125, -187500.015625, -187500.015625, -0.10000000149011612, -0.6480000019073486, 0.7540000081062317, 192.0, 0.0, 0.0, 0.0, 0.0, 0.0, 0.0, 0.0, 0.0, 0.0, 1.613759314465175E9, 2021-02-19 16:28:34.465
59.0, -14332.6982421875, 20343.283203125, -13841.9658203125, 136481.53125, -187500.015625, -187500.015625, -187500.015625, -187500.015625, -0.10000000149011612, -0.6480000019073486, 0.7540000081062317, 192.0, 0.0, 0.0, 0.0, 0.0, 0.0, 0.0, 0.0, 0.0, 0.0, 1.613759314468337E9, 2021-02-19 16:28:34.468
133.0, -12732.603515625, 19439.22265625, -14776.603515625, 135570.015625, -187500.015625, -85287.015625, -187500.015625, -187500.015625, -0.10000000149011612, -0.6480000019073486, 0.7540000081062317, 192.0, 0.0, 0.0, 0.0, 0.0, 0.0, 0.0, 0.0, 0.0, 0.0, 1.6137593144711273E9, 2021-02-19 16:28:34.471
70.0, -13927.1259765625, 20262.1015625, -13935.5078125, 136386.734375, -187500.015625, -187500.015625, -187500.015625, -187500.015625, -0.10000000149011612, -0.6480000019073486, 0.7540000081062317, 192.0, 0.0, 0.0, 0.0, 0.0, 0.0, 0.0, 0.0, 0.0, 0.0, 1.6137593144752376E9, 2021-02-19 16:28:34.475
131.0, -12456.26953125, 19201.64453125, -15008.435546875, 135347.65625, -187500.015625, -87569.859375, -187500.015625, -187500.015625, -0.10000000149011612, -0.6480000019073486, 0.7540000081062317, 192.0, 0.0, 0.0, 0.0, 0.0, 0.0, 0.0, 0.0, 0.0, 0.0, 1.6137593144781976E9, 2021-02-19 16:28:34.478
72.0, -13657.787109375, 20170.4140625, -14025.5625, 136303.0625, -187500.015625, -187500.015625, -187500.015625, -187500.015625, -0.10000000149011612, -0.6480000019073486, 0.7540000081062317, 192.0, 0.0, 0.0, 0.0, 0.0, 0.0, 0.0, 0.0, 0.0, 0.0, 1.6137593144813015E9, 2021-02-19 16:28:34.481
73.0, -13566.32421875, 20213.75390625, -13980.9482421875, 136343.78125, -187500.015625, -187500.015625, -187500.015625, -187500.015625, -0.10000000149011612, -0.6480000019073486, 0.7540000081062317, 192.0, 0.0, 0.0, 0.0, 0.0, 0.0, 0.0, 0.0, 0.0, 0.0, 1.61375931448415E9, 2021-02-19 16:28:34.484
129.0, -12749.412109375, 19449.615234375, -14765.6513671875, 135584.609375, -187500.015625, -92411.65625, -187500.015625, -187500.015625, -0.10000000149011612, -0.6480000019073486, 0.7540000081062317, 192.0, 0.0, 0.0, 0.0, 0.0, 0.0, 0.0, 0.0, 0.0, 0.0, 1.6137593144882176E9, 2021-02-19 16:28:34.488
75.0, -13716.080078125, 20199.248046875, -14001.0205078125, 136328.515625, -187500.015625, -187500.015625, -187500.015625, -187500.015625, -0.10000000149011612, -0.6480000019073486, 0.7540000081062317, 192.0, 0.0, 0.0, 0.0, 0.0, 0.0, 0.0, 0.0, 0.0, 0.0, 1.6137593144911847E9, 2021-02-19 16:28:34.491
76.0, -13533.8017578125, 20171.912109375, -14024.5341796875, 136303.28125, -187500.015625, -187500.015625, -187500.015625, -187500.015625, -0.10000000149011612, -0.6480000019073486, 0.7540000081062317, 192.0, 0.0, 0.0, 0.0, 0.0, 0.0, 0.0, 0.0, 0.0, 0.0, 1.6137593144942617E9, 2021-02-19 16:28:34.494
127.0, -12535.662109375, 19169.81640625, -15039.99609375, 135314.859375, -187500.015625, -94137.6328125, -187500.015625, -187500.015625, -0.10000000149011612, -0.6480000019073486, 0.7540000081062317, 192.0, 0.0, 0.0, 0.0, 0.0, 0.0, 0.0, 0.0, 0.0, 0.0, 1.6137593144983387E9, 2021-02-19 16:28:34.498
87.0, -13794.2001953125, 19591.99609375, -14604.9873046875, 135713.15625, -187500.015625, -186581.609375, -187500.015625, -187500.015625, -0.11000000685453415, -0.6420000195503235, 0.7600000500679016, 192.0, 252.0, 144.0, 235.0, 240.0, 23.0, 192.0, 0.0, 0.0, 0.0, 1.613759314501354E9, 2021-02-19 16:28:34.501
123.0, -12563.2666015625, 19096.94921875, -15112.103515625, 135233.390625, -187500.015625, -101869.4140625, -187500.015625, -187500.015625, -0.11000000685453415, -0.6420000195503235, 0.7600000500679016, 192.0, 0.0, 0.0, 0.0, 0.0, 0.0, 0.0, 0.0, 0.0, 0.0, 1.61375931450427E9, 2021-02-19 16:28:34.504
107.0, -13083.1689453125, 19171.783203125, -15026.98828125, 135298.921875, -187500.015625, -138600.796875, -187500.015625, -187500.015625, -0.11000000685453415, -0.6420000195503235, 0.7600000500679016, 192.0, 0.0, 0.0, 0.0, 0.0, 0.0, 0.0, 0.0, 0.0, 0.0, 1.6137593145074403E9, 2021-02-19 16:28:34.507
121.0, -12804.263671875, 19269.392578125, -14942.654296875, 135402.703125, -187500.015625, -107757.2890625, -187500.015625, -187500.015625, -0.11000000685453415, -0.6420000195503235, 0.7600000500679016, 192.0, 0.0, 0.0, 0.0, 0.0, 0.0, 0.0, 0.0, 0.0, 0.0, 1.6137593145112932E9, 2021-02-19 16:28:34.511
105.0, -13096.9150390625, 19217.42578125, -14981.0546875, 135351.859375, -187500.015625, -144887.375, -187500.015625, -187500.015625, -0.11000000685453415, -0.6420000195503235, 0.7600000500679016, 192.0, 0.0, 0.0, 0.0, 0.0, 0.0, 0.0, 0.0, 0.0, 0.0, 1.6137593145144553E9, 2021-02-19 16:28:34.514
112.0, -13009.765625, 19284.146484375, -14923.611328125, 135414.21875, -187500.015625, -127702.3984375, -187500.015625, -187500.015625, -0.11000000685453415, -0.6420000195503235, 0.7600000500679016, 192.0, 0.0, 0.0, 0.0, 0.0, 0.0, 0.0, 0.0, 0.0, 0.0, 1.6137593145172753E9, 2021-02-19 16:28:34.517
119.0, -12656.09375, 19018.763671875, -15181.6845703125, 135153.140625, -187500.015625, -110128.359375, -187500.015625, -187500.015625, -0.11000000685453415, -0.6420000195503235, 0.7600000500679016, 192.0, 0.0, 0.0, 0.0, 0.0, 0.0, 0.0, 0.0, 0.0, 0.0, 1.613759314520435E9, 2021-02-19 16:28:34.520
142.0, -12458.0126953125, 19570.314453125, -14650.96484375, 135702.109375, -187500.015625, -71912.9609375, -187500.015625, -187500.015625, -0.11000000685453415, -0.6420000195503235, 0.7600000500679016, 192.0, 0.0, 0.0, 0.0, 0.0, 0.0, 0.0, 0.0, 0.0, 0.0, 1.6137593145242524E9, 2021-02-19 16:28:34.524
117.0, -12802.9443359375, 19214.744140625, -14988.654296875, 135353.265625, -187500.015625, -116593.375, -187500.015625, -187500.015625, -0.11000000685453415, -0.6420000195503235, 0.7600000500679016, 192.0, 0.0, 0.0, 0.0, 0.0, 0.0, 0.0, 0.0, 0.0, 0.0, 1.6137593145273046E9, 2021-02-19 16:28:34.527
101.0, -13253.1083984375, 19192.97265625, -15002.3115234375, 135323.984375, -187500.015625, -154209.15625, -187500.015625, -187500.015625, -0.11000000685453415, -0.6420000195503235, 0.7600000500679016, 192.0, 0.0, 0.0, 0.0, 0.0, 0.0, 0.0, 0.0, 0.0, 0.0, 1.6137593145303006E9, 2021-02-19 16:28:34.530
139.0, -12349.517578125, 19290.42578125, -14925.935546875, 135434.21875, -187500.015625, -75224.65625, -187500.015625, -187500.015625, -0.11000000685453415, -0.6420000195503235, 0.7600000500679016, 192.0, 0.0, 0.0, 0.0, 0.0, 0.0, 0.0, 0.0, 0.0, 0.0, 1.6137593145342689E9, 2021-02-19 16:28:34.534
113.0, -12819.9990234375, 19293.712890625, -14911.33984375, 135429.0625, -187500.015625, -125980.75, -187500.015625, -187500.015625, -0.11000000685453415, -0.6420000195503235, 0.7600000500679016, 192.0, 0.0, 0.0, 0.0, 0.0, 0.0, 0.0, 0.0, 0.0, 0.0, 1.6137593145372665E9, 2021-02-19 16:28:34.537
140.0, -12423.7470703125, 19310.3203125, -14904.0751953125, 135443.125, -187500.015625, -72862.59375, -187500.015625, -187500.015625, -0.11000000685453415, -0.6420000195503235, 0.7600000500679016, 192.0, 0.0, 0.0, 0.0, 0.0, 0.0, 0.0, 0.0, 0.0, 0.0, 1.6137593145404112E9, 2021-02-19 16:28:34.540
143.0, -12270.5927734375, 19421.966796875, -14794.931640625, 135561.84375, -187500.015625, -69596.0859375, -187500.015625, -187500.015625, -0.11000000685453415, -0.6420000195503235, 0.7600000500679016, 192.0, 0.0, 0.0, 0.0, 0.0, 0.0, 0.0, 0.0, 0.0, 0.0, 1.6137593145444224E9, 2021-02-19 16:28:34.544
144.0, -12285.8369140625, 19390.78515625, -14824.3916015625, 135528.96875, -187500.015625, -67029.1875, -187500.015625, -187500.015625, -0.11000000685453415, -0.6420000195503235, 0.7600000500679016, 192.0, 0.0, 0.0, 0.0, 0.0, 0.0, 0.0, 0.0, 0.0, 0.0, 1.6137593145474093E9, 2021-02-19 16:28:34.547
145.0, -12501.3076171875, 19520.962890625, -14700.09375, 135648.953125, -187500.015625, -66265.3671875, -187500.015625, -187500.015625, -0.11000000685453415, -0.6420000195503235, 0.7600000500679016, 192.0, 0.0, 0.0, 0.0, 0.0, 0.0, 0.0, 0.0, 0.0, 0.0, 1.6137593145502796E9, 2021-02-19 16:28:34.550
146.0, -12466.1484375, 19590.3203125, -14631.541015625, 135721.421875, -187500.015625, -65967.171875, -187500.015625, -187500.015625, -0.07800000160932541, -0.6320000290870667, 0.7820000648498535, 192.0, 253.0, 144.0, 236.0, 64.0, 24.0, 112.0, 0.0, 0.0, 0.0, 1.6137593145543547E9, 2021-02-19 16:28:34.554
147.0, -12304.27734375, 19410.857421875, -14807.494140625, 135552.171875, -187500.015625, -63918.20703125, -187500.015625, -187500.015625, -0.07800000160932541, -0.6320000290870667, 0.7820000648498535, 192.0, 0.0, 0.0, 0.0, 0.0, 0.0, 0.0, 0.0, 0.0, 0.0, 1.6137593145572608E9, 2021-02-19 16:28:34.557
148.0, -12293.8388671875, 19323.931640625, -14893.8388671875, 135460.171875, -187500.015625, -61162.23828125, -187500.015625, -187500.015625, -0.07800000160932541, -0.6320000290870667, 0.7820000648498535, 192.0, 0.0, 0.0, 0.0, 0.0, 0.0, 0.0, 0.0, 0.0, 0.0, 1.6137593145603151E9, 2021-02-19 16:28:34.560
149.0, -12535.1708984375, 19403.28125, -14814.958984375, 135527.421875, -187500.015625, -60041.43359375, -187500.015625, -187500.015625, -0.07800000160932541, -0.6320000290870667, 0.7820000648498535, 192.0, 0.0, 0.0, 0.0, 0.0, 0.0, 0.0, 0.0, 0.0, 0.0, 1.6137593145633352E9, 2021-02-19 16:28:34.563
150.0, -12589.41796875, 19503.884765625, -14715.5166015625, 135630.46875, -187500.015625, -59848.9375, -187500.015625, -187500.015625, -0.07800000160932541, -0.6320000290870667, 0.7820000648498535, 192.0, 0.0, 0.0, 0.0, 0.0, 0.0, 0.0, 0.0, 0.0, 0.0, 1.61375931456727E9, 2021-02-19 16:28:34.567
151.0, -12389.0576171875, 19420.9609375, -14794.865234375, 135557.609375, -187500.015625, -58147.32421875, -187500.015625, -187500.015625, -0.07800000160932541, -0.6320000290870667, 0.7820000648498535, 192.0, 0.0, 0.0, 0.0, 0.0, 0.0, 0.0, 0.0, 0.0, 0.0, 1.6137593145702677E9, 2021-02-19 16:28:34.570
152.0, -12346.8125, 19264.05078125, -14947.2373046875, 135397.984375, -187500.015625, -55339.609375, -187500.015625, -187500.015625, -0.07800000160932541, -0.6320000290870667, 0.7820000648498535, 192.0, 0.0, 0.0, 0.0, 0.0, 0.0, 0.0, 0.0, 0.0, 0.0, 1.6137593146013389E9, 2021-02-19 16:28:34.601
153.0, -12568.4521484375, 19393.1328125, -14823.966796875, 135514.515625, -187500.015625, -53936.74609375, -187500.015625, -187500.015625, -0.07800000160932541, -0.6320000290870667, 0.7820000648498535, 192.0, 0.0, 0.0, 0.0, 0.0, 0.0, 0.0, 0.0, 0.0, 0.0, 1.6137593146053746E9, 2021-02-19 16:28:34.605
154.0, -12649.65625, 19515.017578125, -14706.12890625, 135639.859375, -187500.015625, -53867.859375, -187500.015625, -187500.015625, -0.07800000160932541, -0.6320000290870667, 0.7820000648498535, 192.0, 0.0, 0.0, 0.0, 0.0, 0.0, 0.0, 0.0, 0.0, 0.0, 1.6137593146255443E9, 2021-02-19 16:28:34.625
155.0, -12488.791015625, 19448.54296875, -14769.0712890625, 135579.53125, -187500.015625, -52595.30859375, -187500.015625, -187500.015625, -0.08800000697374344, -0.6380000114440918, 0.7800000309944153, 192.0, 253.0, 64.0, 236.0, 16.0, 24.0, 96.0, 0.0, 0.0, 0.0, 1.6137593146283236E9, 2021-02-19 16:28:34.628
156.0, -12406.4248046875, 19277.796875, -14940.53125, 135407.59375, -187500.015625, -49874.2734375, -187500.015625, -187500.015625, -0.08800000697374344, -0.6380000114440918, 0.7800000309944153, 192.0, 0.0, 0.0, 0.0, 0.0, 0.0, 0.0, 0.0, 0.0, 0.0, 1.6137593146343594E9, 2021-02-19 16:28:34.634
157.0, -12622.9912109375, 19313.76171875, -14908.166015625, 135434.578125, -187500.015625, -48168.05078125, -187500.015625, -187500.015625, -0.08800000697374344, -0.6380000114440918, 0.7800000309944153, 192.0, 0.0, 0.0, 0.0, 0.0, 0.0, 0.0, 0.0, 0.0, 0.0, 1.6137593146374245E9, 2021-02-19 16:28:34.637
158.0, -12773.5517578125, 19531.646484375, -14693.5, 135651.125, -187500.015625, -48120.66796875, -187500.015625, -187500.015625, -0.08800000697374344, -0.6380000114440918, 0.7800000309944153, 192.0, 0.0, 0.0, 0.0, 0.0, 0.0, 0.0, 0.0, 0.0, 0.0, 1.613759314640437E9, 2021-02-19 16:28:34.640
159.0, -12553.4990234375, 19558.580078125, -14664.4873046875, 135685.28125, -187500.015625, -47201.16015625, -187500.015625, -187500.015625, -0.08800000697374344, -0.6380000114440918, 0.7800000309944153, 192.0, 0.0, 0.0, 0.0, 0.0, 0.0, 0.0, 0.0, 0.0, 0.0, 1.6137593146613748E9, 2021-02-19 16:28:34.661
160.0, -12362.6826171875, 19382.314453125, -14836.484375, 135513.65625, -187500.015625, -44472.953125, -187500.015625, -187500.015625, -0.08800000697374344, -0.6380000114440918, 0.7800000309944153, 192.0, 0.0, 0.0, 0.0, 0.0, 0.0, 0.0, 0.0, 0.0, 0.0, 1.6137593146663957E9, 2021-02-19 16:28:34.666
161.0, -12488.1201171875, 19343.736328125, -14876.203125, 135461.609375, -187500.015625, -42235.05078125, -187500.015625, -187500.015625, -0.08800000697374344, -0.6380000114440918, 0.7800000309944153, 192.0, 0.0, 0.0, 0.0, 0.0, 0.0, 0.0, 0.0, 0.0, 0.0, 1.6137593146964219E9, 2021-02-19 16:28:34.696
162.0, -12667.4033203125, 19514.16796875, -14711.4033203125, 135626.109375, -187500.015625, -41779.1875, -187500.015625, -187500.015625, -0.08800000697374344, -0.6380000114440918, 0.7800000309944153, 192.0, 0.0, 0.0, 0.0, 0.0, 0.0, 0.0, 0.0, 0.0, 0.0, 1.6137593147004352E9, 2021-02-19 16:28:34.700
163.0, -12492.8369140625, 19524.716796875, -14701.1220703125, 135645.5625, -187500.015625, -40850.96484375, -187500.015625, -187500.015625, -0.08800000697374344, -0.6380000114440918, 0.7800000309944153, 192.0, 0.0, 0.0, 0.0, 0.0, 0.0, 0.0, 0.0, 0.0, 0.0, 1.6137593147094543E9, 2021-02-19 16:28:34.709
164.0, -12311.4970703125, 19304.3515625, -14916.1455078125, 135430.0625, -187500.015625, -37972.03515625, -187500.015625, -187500.015625, -0.08800000697374344, -0.6380000114440918, 0.7800000309944153, 192.0, 0.0, 0.0, 0.0, 0.0, 0.0, 0.0, 0.0, 0.0, 0.0, 1.613759314712463E9, 2021-02-19 16:28:34.712
165.0, -12363.9560546875, 19255.490234375, -14965.38671875, 135373.921875, -187500.015625, -35115.484375, -187500.015625, -187500.015625, -0.09400000423192978, -0.6420000195503235, 0.7620000243186951, 192.0, 253.0, 16.0, 235.0, 240.0, 23.0, 208.0, 0.0, 0.0, 0.0, 1.6137593147164528E9, 2021-02-19 16:28:34.716
166.0, -12586.2890625, 19350.9765625, -14875.9345703125, 135461.296875, -187500.015625, -34083.63671875, -187500.015625, -187500.015625, -0.09400000423192978, -0.6420000195503235, 0.7620000243186951, 192.0, 0.0, 0.0, 0.0, 0.0, 0.0, 0.0, 0.0, 0.0, 0.0, 1.61375931471962E9, 2021-02-19 16:28:34.719
167.0, -12518.5185546875, 19343.154296875, -14882.1484375, 135461.828125, -187500.015625, -33076.6015625, -187500.015625, -187500.015625, -0.09400000423192978, -0.6420000195503235, 0.7620000243186951, 192.0, 0.0, 0.0, 0.0, 0.0, 0.0, 0.0, 0.0, 0.0, 0.0, 1.6137593147236342E9, 2021-02-19 16:28:34.723
168.0, -12331.2109375, 19166.59765625, -15053.966796875, 135290.09375, -187500.015625, -30122.818359375, -187500.015625, -187500.015625, -0.09400000423192978, -0.6420000195503235, 0.7620000243186951, 192.0, 0.0, 0.0, 0.0, 0.0, 0.0, 0.0, 0.0, 0.0, 0.0, 1.6137593147266035E9, 2021-02-19 16:28:34.726
169.0, -12349.986328125, 19042.859375, -15175.58203125, 135159.9375, -187500.015625, -26692.609375, -187500.015625, -187500.015625, -0.09400000423192978, -0.6420000195503235, 0.7620000243186951, 192.0, 0.0, 0.0, 0.0, 0.0, 0.0, 0.0, 0.0, 0.0, 0.0, 1.6137593147305427E9, 2021-02-19 16:28:34.730
170.0, -12584.6572265625, 19170.509765625, -15055.9111328125, 135276.421875, -187500.015625, -25018.6875, -187500.015625, -187500.015625, -0.09400000423192978, -0.6420000195503235, 0.7620000243186951, 192.0, 0.0, 0.0, 0.0, 0.0, 0.0, 0.0, 0.0, 0.0, 0.0, 1.613759314733543E9, 2021-02-19 16:28:34.733
171.0, -12545.0947265625, 19187.25, -15034.54296875, 135300.453125, -187500.015625, -23902.8203125, -187500.015625, -187500.015625, -0.09400000423192978, -0.6420000195503235, 0.7620000243186951, 192.0, 0.0, 0.0, 0.0, 0.0, 0.0, 0.0, 0.0, 0.0, 0.0, 1.6137593147377045E9, 2021-02-19 16:28:34.737
172.0, -12400.703125, 18992.521484375, -15222.4091796875, 135111.125, -187500.015625, -20706.0078125, -187500.015625, -187500.015625, -0.09400000423192978, -0.6420000195503235, 0.7620000243186951, 192.0, 0.0, 0.0, 0.0, 0.0, 0.0, 0.0, 0.0, 0.0, 0.0, 1.6137593147404885E9, 2021-02-19 16:28:34.740
173.0, -12364.671875, 18881.388671875, -15332.4912109375, 134999.03125, -187500.015625, -16785.712890625, -187500.015625, -187500.015625, -0.09400000423192978, -0.6420000195503235, 0.7620000243186951, 192.0, 0.0, 0.0, 0.0, 0.0, 0.0, 0.0, 0.0, 0.0, 0.0, 1.6137593147435312E9, 2021-02-19 16:28:34.743
185.0, -12433.5146484375, 18760.19921875, -15457.482421875, 134863.8125, -187500.015625, 15286.7373046875, -187500.015625, -187500.015625, -0.09000000357627869, -0.6420000195503235, 0.7680000066757202, 192.0, 253.0, 48.0, 235.0, 240.0, 24.0, 0.0, 0.0, 0.0, 0.0, 1.6137593147474692E9, 2021-02-19 16:28:34.747
175.0, -12680.30078125, 19092.837890625, -15128.7333984375, 135193.890625, -187500.015625, -12957.1044921875, -187500.015625, -187500.015625, -0.09400000423192978, -0.64000004529953, 0.7600000500679016, 192.0, 253.0, 16.0, 236.0, 0.0, 23.0, 192.0, 0.0, 0.0, 0.0, 1.6137593147505553E9, 2021-02-19 16:28:34.750
176.0, -12413.64453125, 19007.453125, -15209.5791015625, 135116.921875, -187500.015625, -10212.712890625, -187500.015625, -187500.015625, -0.09400000423192978, -0.64000004529953, 0.7600000500679016, 192.0, 0.0, 0.0, 0.0, 0.0, 0.0, 0.0, 0.0, 0.0, 0.0, 1.6137593147545948E9, 2021-02-19 16:28:34.754
183.0, -12722.2998046875, 19013.7109375, -15211.0322265625, 135105.3125, -187500.015625, 9433.28515625, -187500.015625, -187500.015625, -0.09400000423192978, -0.64000004529953, 0.7600000500679016, 192.0, 0.0, 0.0, 0.0, 0.0, 0.0, 0.0, 0.0, 0.0, 0.0, 1.6137593147576592E9, 2021-02-19 16:28:34.757
178.0, -12570.017578125, 18898.310546875, -15320.48828125, 135002.046875, -187500.015625, -3208.950439453125, -187500.015625, -187500.015625, -0.09400000423192978, -0.64000004529953, 0.7600000500679016, 192.0, 0.0, 0.0, 0.0, 0.0, 0.0, 0.0, 0.0, 0.0, 0.0, 1.6137593147605107E9, 2021-02-19 16:28:34.760
179.0, -12684.6591796875, 19041.740234375, -15178.3310546875, 135144.3125, -187500.015625, -1807.250244140625, -187500.015625, -187500.015625, -0.09400000423192978, -0.64000004529953, 0.7600000500679016, 192.0, 0.0, 0.0, 0.0, 0.0, 0.0, 0.0, 0.0, 0.0, 0.0, 1.6137593147645307E9, 2021-02-19 16:28:34.764
180.0, -12482.2861328125, 19020.037109375, -15197.6435546875, 135127.984375, -187500.015625, 763.669677734375, -187500.015625, -187500.015625, -0.09400000423192978, -0.64000004529953, 0.7600000500679016, 192.0, 0.0, 0.0, 0.0, 0.0, 0.0, 0.0, 0.0, 0.0, 0.0, 1.6137593147676167E9, 2021-02-19 16:28:34.767
194.0, -12448.1328125, 19033.134765625, -15193.0615234375, 135126.53125, -187500.015625, 34337.3984375, -187500.015625, -187500.015625, -0.09400000423192978, -0.64000004529953, 0.7600000500679016, 192.0, 0.0, 0.0, 0.0, 0.0, 0.0, 0.0, 0.0, 0.0, 0.0, 1.61375931477156E9, 2021-02-19 16:28:34.771
202.0, -12403.67578125, 19225.271484375, -15007.4521484375, 135305.984375, -187500.015625, 45622.74609375, -187500.015625, -187500.015625, -0.09400000423192978, -0.64000004529953, 0.7600000500679016, 192.0, 0.0, 0.0, 0.0, 0.0, 0.0, 0.0, 0.0, 0.0, 0.0, 1.6137593147746713E9, 2021-02-19 16:28:34.774
192.0, -12662.77734375, 19255.4453125, -14973.455078125, 135345.859375, -187500.015625, 29089.720703125, -187500.015625, -187500.015625, -0.09400000423192978, -0.64000004529953, 0.7600000500679016, 192.0, 0.0, 0.0, 0.0, 0.0, 0.0, 0.0, 0.0, 0.0, 0.0, 1.6137593147815459E9, 2021-02-19 16:28:34.781
188.0, -12627.751953125, 19012.326171875, -15212.41796875, 135105.046875, -187500.015625, 21205.232421875, -187500.015625, -187500.015625, -0.09400000423192978, -0.64000004529953, 0.7600000500679016, 192.0, 0.0, 0.0, 0.0, 0.0, 0.0, 0.0, 0.0, 0.0, 0.0, 1.6137593147845552E9, 2021-02-19 16:28:34.784
200.0, -12716.599609375, 19427.689453125, -14806.3310546875, 135504.5625, -187500.015625, 41361.1640625, -187500.015625, -187500.015625, -0.09400000423192978, -0.64000004529953, 0.7600000500679016, 192.0, 0.0, 0.0, 0.0, 0.0, 0.0, 0.0, 0.0, 0.0, 0.0, 1.6137593147916908E9, 2021-02-19 16:28:34.791
190.0, -12550.0791015625, 18843.078125, -15380.435546875, 134933.828125, -187500.015625, 27415.150390625, -187500.015625, -187500.015625, -0.09400000423192978, -0.64000004529953, 0.7600000500679016, 192.0, 0.0, 0.0, 0.0, 0.0, 0.0, 0.0, 0.0, 0.0, 0.0, 1.613759314794525E9, 2021-02-19 16:28:34.794
195.0, -12702.3173828125, 19232.267578125, -14998.154296875, 135312.5, -187500.015625, 35306.90234375, -187500.015625, -187500.015625, -0.07400000095367432, -0.64000004529953, 0.7720000147819519, 192.0, 253.0, 176.0, 236.0, 0.0, 24.0, 32.0, 0.0, 0.0, 0.0, 1.6137593147985892E9, 2021-02-19 16:28:34.798
206.0, -12460.4931640625, 19194.3359375, -15036.8447265625, 135272.96875, -187500.015625, 51466.27734375, -187500.015625, -187500.015625, -0.07400000095367432, -0.64000004529953, 0.7720000147819519, 192.0, 0.0, 0.0, 0.0, 0.0, 0.0, 0.0, 0.0, 0.0, 0.0, 1.6137593148016047E9, 2021-02-19 16:28:34.801
203.0, -12602.181640625, 19322.9921875, -14911.6748046875, 135392.171875, -187500.015625, 47195.70703125, -187500.015625, -187500.015625, -0.07400000095367432, -0.64000004529953, 0.7720000147819519, 192.0, 0.0, 0.0, 0.0, 0.0, 0.0, 0.0, 0.0, 0.0, 0.0, 1.6137593148046503E9, 2021-02-19 16:28:34.804
204.0, -12737.3203125, 19469.21875, -14767.9306640625, 135536.484375, -187500.015625, 47318.93359375, -187500.015625, -187500.015625, -0.07400000095367432, -0.64000004529953, 0.7720000147819519, 192.0, 0.0, 0.0, 0.0, 0.0, 0.0, 0.0, 0.0, 0.0, 0.0, 1.613759314820649E9, 2021-02-19 16:28:34.820
207.0, -12638.771484375, 19227.841796875, -15008.123046875, 135296.0, -187500.015625, 53555.0703125, -187500.015625, -187500.015625, -0.07400000095367432, -0.64000004529953, 0.7720000147819519, 192.0, 0.0, 0.0, 0.0, 0.0, 0.0, 0.0, 0.0, 0.0, 0.0, 1.6137593148247252E9, 2021-02-19 16:28:34.824
208.0, -12839.84765625, 19406.365234375, -14834.6953125, 135468.484375, -187500.015625, 53918.84375, -187500.015625, -187500.015625, -0.07400000095367432, -0.64000004529953, 0.7720000147819519, 192.0, 0.0, 0.0, 0.0, 0.0, 0.0, 0.0, 0.0, 0.0, 0.0, 1.6137593148316095E9, 2021-02-19 16:28:34.831
209.0, -12656.451171875, 19437.322265625, -14797.994140625, 135506.28125, -187500.015625, 54953.328125, -187500.015625, -187500.015625, -0.07400000095367432, -0.64000004529953, 0.7720000147819519, 192.0, 0.0, 0.0, 0.0, 0.0, 0.0, 0.0, 0.0, 0.0, 0.0, 1.6137593148566449E9, 2021-02-19 16:28:34.856
210.0, -12464.875, 19297.1328125, -14932.775390625, 135367.8125, -187500.015625, 57822.953125, -187500.015625, -187500.015625, -0.07400000095367432, -0.64000004529953, 0.7720000147819519, 192.0, 0.0, 0.0, 0.0, 0.0, 0.0, 0.0, 0.0, 0.0, 0.0, 1.6137593148596125E9, 2021-02-19 16:28:34.859
211.0, -12553.208984375, 19314.365234375, -14918.2021484375, 135374.1875, -187500.015625, 60352.3671875, -187500.015625, -187500.015625, -0.07400000095367432, -0.64000004529953, 0.7720000147819519, 192.0, 0.0, 0.0, 0.0, 0.0, 0.0, 0.0, 0.0, 0.0, 0.0, 1.6137593148646326E9, 2021-02-19 16:28:34.864
212.0, -12767.6064453125, 19520.248046875, -14719.517578125, 135569.9375, -187500.015625, 60986.1953125, -187500.015625, -187500.015625, -0.07400000095367432, -0.64000004529953, 0.7720000147819519, 192.0, 0.0, 0.0, 0.0, 0.0, 0.0, 0.0, 0.0, 0.0, 0.0, 1.6137593148806508E9, 2021-02-19 16:28:34.880
213.0, -12657.3681640625, 19499.05859375, -14738.9189453125, 135557.765625, -187500.015625, 61821.859375, -187500.015625, -187500.015625, -0.07400000095367432, -0.64000004529953, 0.7720000147819519, 192.0, 0.0, 0.0, 0.0, 0.0, 0.0, 0.0, 0.0, 0.0, 0.0, 1.6137593148956826E9, 2021-02-19 16:28:34.895
214.0, -12502.3583984375, 19291.1640625, -14940.5087890625, 135358.765625, -187500.015625, 64542.625, -187500.015625, -187500.015625, -0.07400000095367432, -0.64000004529953, 0.7720000147819519, 192.0, 0.0, 0.0, 0.0, 0.0, 0.0, 0.0, 0.0, 0.0, 0.0, 1.6137593148986812E9, 2021-02-19 16:28:34.898
215.0, -12584.7919921875, 19224.400390625, -15008.123046875, 135282.0, -187500.015625, 67352.4453125, -187500.015625, -187500.015625, -0.10000000149011612, -0.6380000114440918, 0.7560000419616699, 192.0, 252.0, 224.0, 236.0, 16.0, 23.0, 160.0, 0.0, 0.0, 0.0, 1.6137593149017687E9, 2021-02-19 16:28:34.901
216.0, -12851.0458984375, 19416.580078125, -14820.8154296875, 135466.609375, -187500.015625, 68210.640625, -187500.015625, -187500.015625, -0.10000000149011612, -0.6380000114440918, 0.7560000419616699, 192.0, 0.0, 0.0, 0.0, 0.0, 0.0, 0.0, 0.0, 0.0, 0.0, 1.613759314921714E9, 2021-02-19 16:28:34.921
217.0, -12767.4951171875, 19529.455078125, -14706.2177734375, 135588.5625, -187500.015625, 68728.953125, -187500.015625, -187500.015625, -0.10000000149011612, -0.6380000114440918, 0.7560000419616699, 192.0, 0.0, 0.0, 0.0, 0.0, 0.0, 0.0, 0.0, 0.0, 0.0, 1.6137593149457965E9, 2021-02-19 16:28:34.945
218.0, -12552.0244140625, 19330.212890625, -14901.1025390625, 135395.109375, -187500.015625, 71101.1015625, -187500.015625, -187500.015625, -0.10000000149011612, -0.6380000114440918, 0.7560000419616699, 192.0, 0.0, 0.0, 0.0, 0.0, 0.0, 0.0, 0.0, 0.0, 0.0, 1.613759314948836E9, 2021-02-19 16:28:34.948
219.0, -12565.7255859375, 19207.546875, -15023.76953125, 135269.90625, -187500.015625, 73897.078125, -187500.015625, -187500.015625, -0.10000000149011612, -0.6380000114440918, 0.7560000419616699, 192.0, 0.0, 0.0, 0.0, 0.0, 0.0, 0.0, 0.0, 0.0, 0.0, 1.6137593149529245E9, 2021-02-19 16:28:34.952
220.0, -12876.1689453125, 19324.177734375, -14908.8583984375, 135376.75, -187500.015625, 75141.5546875, -187500.015625, -187500.015625, -0.10000000149011612, -0.6380000114440918, 0.7560000419616699, 192.0, 0.0, 0.0, 0.0, 0.0, 0.0, 0.0, 0.0, 0.0, 0.0, 1.6137593149567304E9, 2021-02-19 16:28:34.956
221.0, -12884.349609375, 19502.1640625, -14729.7763671875, 135555.484375, -187500.015625, 75418.9375, -187500.015625, -187500.015625, -0.10000000149011612, -0.6380000114440918, 0.7560000419616699, 192.0, 0.0, 0.0, 0.0, 0.0, 0.0, 0.0, 0.0, 0.0, 0.0, 1.6137593149617772E9, 2021-02-19 16:28:34.961
222.0, -12646.080078125, 19354.666015625, -14868.7373046875, 135419.0, -187500.015625, 77304.0, -187500.015625, -187500.015625, -0.10000000149011612, -0.6380000114440918, 0.7560000419616699, 192.0, 0.0, 0.0, 0.0, 0.0, 0.0, 0.0, 0.0, 0.0, 0.0, 1.6137593149647863E9, 2021-02-19 16:28:34.964
223.0, -12618.7890625, 19212.060546875, -15009.4638671875, 135275.078125, -187500.015625, 80390.234375, -187500.015625, -187500.015625, -0.10000000149011612, -0.6380000114440918, 0.7560000419616699, 192.0, 0.0, 0.0, 0.0, 0.0, 0.0, 0.0, 0.0, 0.0, 0.0, 1.6137593149687912E9, 2021-02-19 16:28:34.968
224.0, -12831.599609375, 19349.904296875, -14878.9970703125, 135402.1875, -187500.015625, 81549.5546875, -187500.015625, -187500.015625, -0.09600000083446503, -0.64000004529953, 0.7600000500679016, 192.0, 253.0, 0.0, 236.0, 0.0, 23.0, 192.0, 0.0, 0.0, 0.0, 1.6137593150137882E9, 2021-02-19 16:28:35.013
225.0, -12890.4521484375, 19531.958984375, -14699.333984375, 135585.65625, -187500.015625, 81522.9140625, -187500.015625, -187500.015625, -0.09600000083446503, -0.64000004529953, 0.7600000500679016, 192.0, 0.0, 0.0, 0.0, 0.0, 0.0, 0.0, 0.0, 0.0, 0.0, 1.6137593150168157E9, 2021-02-19 16:28:35.016
226.0, -12675.4951171875, 19438.23828125, -14785.25390625, 135500.203125, -187500.015625, 83039.8984375, -187500.015625, -187500.015625, -0.09600000083446503, -0.64000004529953, 0.7600000500679016, 192.0, 0.0, 0.0, 0.0, 0.0, 0.0, 0.0, 0.0, 0.0, 0.0, 1.6137593150257912E9, 2021-02-19 16:28:35.025
227.0, -12570.330078125, 19287.677734375, -14934.0712890625, 135347.90625, -187500.015625, 85788.875, -187500.015625, -187500.015625, -0.09600000083446503, -0.64000004529953, 0.7600000500679016, 192.0, 0.0, 0.0, 0.0, 0.0, 0.0, 0.0, 0.0, 0.0, 0.0, 1.6137593150288408E9, 2021-02-19 16:28:35.028
228.0, -12761.0576171875, 19390.740234375, -14836.39453125, 135445.046875, -187500.015625, 87277.9296875, -187500.015625, -187500.015625, -0.09600000083446503, -0.64000004529953, 0.7600000500679016, 192.0, 0.0, 0.0, 0.0, 0.0, 0.0, 0.0, 0.0, 0.0, 0.0, 1.613759315032993E9, 2021-02-19 16:28:35.032
229.0, -12889.4013671875, 19578.205078125, -14651.3671875, 135626.609375, -187500.015625, 87127.1640625, -187500.015625, -187500.015625, -0.09600000083446503, -0.64000004529953, 0.7600000500679016, 192.0, 0.0, 0.0, 0.0, 0.0, 0.0, 0.0, 0.0, 0.0, 0.0, 1.6137593150359714E9, 2021-02-19 16:28:35.035
230.0, -12660.384765625, 19563.095703125, -14663.3916015625, 135620.40625, -187500.015625, 87866.109375, -187500.015625, -187500.015625, -0.09600000083446503, -0.64000004529953, 0.7600000500679016, 192.0, 0.0, 0.0, 0.0, 0.0, 0.0, 0.0, 0.0, 0.0, 0.0, 1.6137593150388815E9, 2021-02-19 16:28:35.038
231.0, -12486.265625, 19411.23828125, -14810.734375, 135472.828125, -187500.015625, 90175.7421875, -187500.015625, -187500.015625, -0.09600000083446503, -0.64000004529953, 0.7600000500679016, 192.0, 0.0, 0.0, 0.0, 0.0, 0.0, 0.0, 0.0, 0.0, 0.0, 1.6137593150428011E9, 2021-02-19 16:28:35.042
238.0, -12414.091796875, 19900.517578125, -14324.2490234375, 135949.296875, -187500.015625, 93292.0625, -187500.015625, -187500.015625, -0.09600000083446503, -0.64000004529953, 0.7600000500679016, 192.0, 0.0, 0.0, 0.0, 0.0, 0.0, 0.0, 0.0, 0.0, 0.0, 1.6137593150659714E9, 2021-02-19 16:28:35.065
233.0, -12797.6474609375, 19679.681640625, -14547.3193359375, 135722.53125, -187500.015625, 91212.75, -187500.015625, -187500.015625, -0.09600000083446503, -0.64000004529953, 0.7600000500679016, 192.0, 0.0, 0.0, 0.0, 0.0, 0.0, 0.0, 0.0, 0.0, 0.0, 1.6137593151109884E9, 2021-02-19 16:28:35.110
243.0, -12175.5986328125, 19834.4453125, -14388.8681640625, 135887.40625, -187500.015625, 95120.2109375, -187500.015625, -187500.015625, -0.09600000083446503, -0.64000004529953, 0.7600000500679016, 192.0, 0.0, 0.0, 0.0, 0.0, 0.0, 0.0, 0.0, 0.0, 0.0, 1.6137593151139553E9, 2021-02-19 16:28:35.113
235.0, -12301.416015625, 19620.0703125, -14596.0234375, 135676.96875, -187500.015625, 92958.84375, -187500.015625, -187500.015625, -0.09600000083446503, -0.64000004529953, 0.7600000500679016, 192.0, 0.0, 0.0, 0.0, 0.0, 0.0, 0.0, 0.0, 0.0, 0.0, 1.6137593151172748E9, 2021-02-19 16:28:35.117
239.0, -12174.81640625, 19726.955078125, -14492.333984375, 135786.421875, -187500.015625, 94557.0859375, -187500.015625, -187500.015625, -0.09600000083446503, -0.64000004529953, 0.7600000500679016, 192.0, 0.0, 0.0, 0.0, 0.0, 0.0, 0.0, 0.0, 0.0, 0.0, 1.6137593151209214E9, 2021-02-19 16:28:35.120
9.0, -12234.31640625, 19916.767578125, -14315.263671875, 135959.359375, -187500.015625, 91062.125, -187500.015625, -187500.015625, -0.09600000083446503, -0.64000004529953, 0.7600000500679016, 192.0, 0.0, 0.0, 0.0, 0.0, 0.0, 0.0, 0.0, 0.0, 0.0, 1.6137593151240072E9, 2021-02-19 16:28:35.124
7.0, -12425.9375, 20239.771484375, -13997.2880859375, 136281.59375, -187500.015625, 88997.6015625, -187500.015625, -187500.015625, -0.09600000083446503, -0.64000004529953, 0.7600000500679016, 192.0, 0.0, 0.0, 0.0, 0.0, 0.0, 0.0, 0.0, 0.0, 0.0, 1.6137593151270165E9, 2021-02-19 16:28:35.127
251.0, -12253.2705078125, 20131.724609375, -14095.0986328125, 136184.125, -187500.015625, 92970.265625, -187500.015625, -187500.015625, -0.09600000083446503, -0.64000004529953, 0.7600000500679016, 192.0, 0.0, 0.0, 0.0, 0.0, 0.0, 0.0, 0.0, 0.0, 0.0, 1.6137593151311088E9, 2021-02-19 16:28:35.131
249.0, -12378.462890625, 19977.09375, -14251.404296875, 136014.890625, -187500.015625, 95251.578125, -187500.015625, -187500.015625, -0.09600000083446503, -0.64000004529953, 0.7600000500679016, 192.0, 0.0, 0.0, 0.0, 0.0, 0.0, 0.0, 0.0, 0.0, 0.0, 1.6137593151339507E9, 2021-02-19 16:28:35.133
26.0, -12135.3876953125, 20070.099609375, -14164.724609375, 136110.515625, -187500.015625, 90367.6328125, -187500.015625, -187500.015625, -0.09600000083446503, -0.64000004529953, 0.7600000500679016, 192.0, 0.0, 0.0, 0.0, 0.0, 0.0, 0.0, 0.0, 0.0, 0.0, 1.6137593151370406E9, 2021-02-19 16:28:35.137
51.0, -11650.0859375, 20052.375, -14180.21484375, 136104.78125, -187500.015625, 80114.9296875, -187500.015625, -187500.015625, -0.09600000083446503, -0.64000004529953, 0.7600000500679016, 192.0, 0.0, 0.0, 0.0, 0.0, 0.0, 0.0, 0.0, 0.0, 0.0, 1.6137593151409423E9, 2021-02-19 16:28:35.140
0.0, -12155.19140625, 20092.228515625, -14138.751953125, 136135.78125, -187500.015625, 91811.0390625, -187500.015625, -187500.015625, -0.09600000083446503, -0.64000004529953, 0.7600000500679016, 192.0, 0.0, 0.0, 0.0, 0.0, 0.0, 0.0, 0.0, 0.0, 0.0, 1.6137593151580088E9, 2021-02-19 16:28:35.158
22.0, -12361.3193359375, 19965.427734375, -14268.1015625, 135998.984375, -187500.015625, 91660.765625, -187500.015625, -187500.015625, -0.09600000083446503, -0.64000004529953, 0.7600000500679016, 192.0, 0.0, 0.0, 0.0, 0.0, 0.0, 0.0, 0.0, 0.0, 0.0, 1.6137593151621757E9, 2021-02-19 16:28:35.162
20.0, -12350.27734375, 20074.078125, -14161.2373046875, 136124.59375, -187500.015625, 90165.4375, -187500.015625, -187500.015625, -0.09600000083446503, -0.64000004529953, 0.7600000500679016, 192.0, 0.0, 0.0, 0.0, 0.0, 0.0, 0.0, 0.0, 0.0, 0.0, 1.613759315164976E9, 2021-02-19 16:28:35.164
11.0, -12474.8662109375, 20211.318359375, -14026.814453125, 136250.953125, -187500.015625, 89220.25, -187500.015625, -187500.015625, -0.09600000083446503, -0.64000004529953, 0.7600000500679016, 192.0, 0.0, 0.0, 0.0, 0.0, 0.0, 0.0, 0.0, 0.0, 0.0, 1.6137593151689885E9, 2021-02-19 16:28:35.168
49.0, -11730.865234375, 20242.140625, -13995.857421875, 136294.921875, -187500.015625, 78485.8203125, -187500.015625, -187500.015625, -0.09600000083446503, -0.64000004529953, 0.7600000500679016, 192.0, 0.0, 0.0, 0.0, 0.0, 0.0, 0.0, 0.0, 0.0, 0.0, 1.613759315172994E9, 2021-02-19 16:28:35.172
18.0, -12445.2724609375, 19989.365234375, -14243.4921875, 136031.234375, -187500.015625, 91730.390625, -187500.015625, -187500.015625, -0.10400000214576721, -0.64000004529953, 0.7480000257492065, 192.0, 252.0, 192.0, 236.0, 0.0, 23.0, 96.0, 0.0, 0.0, 0.0, 1.6137593151822052E9, 2021-02-19 16:28:35.182
14.0, -12518.5634765625, 20026.3125, -14209.607421875, 136058.703125, -187500.015625, 91216.953125, -187500.015625, -187500.015625, -0.10400000214576721, -0.64000004529953, 0.7480000257492065, 192.0, 0.0, 0.0, 0.0, 0.0, 0.0, 0.0, 0.0, 0.0, 0.0, 1.6137593152121868E9, 2021-02-19 16:28:35.212
47.0, -11710.279296875, 20080.58203125, -14155.1806640625, 136132.25, -187500.015625, 80724.21875, -187500.015625, -187500.015625, -0.10000000149011612, -0.6380000114440918, 0.7640000581741333, 192.0, 252.0, 224.0, 236.0, 16.0, 23.0, 224.0, 0.0, 0.0, 0.0, 1.6137593152170224E9, 2021-02-19 16:28:35.217
16.0, -12270.861328125, 20091.267578125, -14140.3837890625, 136146.75, -187500.015625, 90231.28125, -187500.015625, -187500.015625, -0.10000000149011612, -0.6380000114440918, 0.7640000581741333, 192.0, 0.0, 0.0, 0.0, 0.0, 0.0, 0.0, 0.0, 0.0, 0.0, 1.613759315220055E9, 2021-02-19 16:28:35.220
27.0, -12343.0126953125, 20270.818359375, -13969.1025390625, 136306.234375, -187500.015625, 88668.6484375, -187500.015625, -187500.015625, -0.09800000488758087, -0.64000004529953, 0.7660000324249268, 192.0, 252.0, 240.0, 236.0, 0.0, 23.0, 240.0, 0.0, 0.0, 0.0, 1.6137593152241008E9, 2021-02-19 16:28:35.224
45.0, -11656.4794921875, 20231.8828125, -14001.6689453125, 136291.359375, -187500.015625, 79442.2109375, -187500.015625, -187500.015625, -0.09800000488758087, -0.64000004529953, 0.7660000324249268, 192.0, 0.0, 0.0, 0.0, 0.0, 0.0, 0.0, 0.0, 0.0, 0.0, 1.6137593152272418E9, 2021-02-19 16:28:35.227
38.0, -11582.3603515625, 20113.171875, -14114.3662109375, 136170.28125, -187500.015625, 83611.3671875, -187500.015625, -187500.015625, -0.09800000488758087, -0.64000004529953, 0.7660000324249268, 192.0, 0.0, 0.0, 0.0, 0.0, 0.0, 0.0, 0.0, 0.0, 0.0, 1.6137593152320507E9, 2021-02-19 16:28:35.232
30.0, -11912.7197265625, 20114.06640625, -14122.099609375, 136155.5625, -187500.015625, 88092.671875, -187500.015625, -187500.015625, -0.09800000488758087, -0.64000004529953, 0.7660000324249268, 192.0, 0.0, 0.0, 0.0, 0.0, 0.0, 0.0, 0.0, 0.0, 0.0, 1.613759315236162E9, 2021-02-19 16:28:35.236
43.0, -11725.92578125, 20178.55078125, -14055.4248046875, 136225.546875, -187500.015625, 81591.7734375, -187500.015625, -187500.015625, -0.09800000488758087, -0.64000004529953, 0.7660000324249268, 192.0, 0.0, 0.0, 0.0, 0.0, 0.0, 0.0, 0.0, 0.0, 0.0, 1.6137593152572846E9, 2021-02-19 16:28:35.257
41.0, -11624.1357421875, 20249.62890625, -13979.25, 136306.859375, -187500.015625, 80850.4609375, -187500.015625, -187500.015625, -0.09800000488758087, -0.64000004529953, 0.7660000324249268, 192.0, 0.0, 0.0, 0.0, 0.0, 0.0, 0.0, 0.0, 0.0, 0.0, 1.6137593152610753E9, 2021-02-19 16:28:35.261
33.0, -11707.3291015625, 20235.703125, -14000.0146484375, 136291.515625, -187500.015625, 85020.109375, -187500.015625, -187500.015625, -0.09800000488758087, -0.64000004529953, 0.7660000324249268, 192.0, 0.0, 0.0, 0.0, 0.0, 0.0, 0.0, 0.0, 0.0, 0.0, 1.6137593152671692E9, 2021-02-19 16:28:35.267
34.0, -11689.3134765625, 20127.8125, -14107.0791015625, 136178.890625, -187500.015625, 85653.359375, -187500.015625, -187500.015625, -0.09800000488758087, -0.64000004529953, 0.7660000324249268, 192.0, 0.0, 0.0, 0.0, 0.0, 0.0, 0.0, 0.0, 0.0, 0.0, 1.613759315287298E9, 2021-02-19 16:28:35.287
39.0, -11838.1318359375, 20234.18359375, -13998.0478515625, 136275.140625, -187500.015625, 82886.390625, -187500.015625, -187500.015625, -0.09800000488758087, -0.64000004529953, 0.7660000324249268, 192.0, 0.0, 0.0, 0.0, 0.0, 0.0, 0.0, 0.0, 0.0, 0.0, 1.6137593153033032E9, 2021-02-19 16:28:35.303
52.0, -11909.724609375, 20190.955078125, -14047.6689453125, 136239.484375, -187500.015625, 78881.1796875, -187500.015625, -187500.015625, -0.09800000488758087, -0.64000004529953, 0.7660000324249268, 192.0, 0.0, 0.0, 0.0, 0.0, 0.0, 0.0, 0.0, 0.0, 0.0, 1.6137593153061364E9, 2021-02-19 16:28:35.306
53.0, -11791.4609375, 20231.904296875, -14003.412109375, 136286.6875, -187500.015625, 77862.3671875, -187500.015625, -187500.015625, -0.09800000488758087, -0.64000004529953, 0.7660000324249268, 192.0, 0.0, 0.0, 0.0, 0.0, 0.0, 0.0, 0.0, 0.0, 0.0, 1.6137593153101869E9, 2021-02-19 16:28:35.310
54.0, -11569.84375, 20071.462890625, -14158.935546875, 136132.578125, -187500.015625, 78698.5703125, -187500.015625, -187500.015625, -0.09800000488758087, -0.64000004529953, 0.7660000324249268, 192.0, 0.0, 0.0, 0.0, 0.0, 0.0, 0.0, 0.0, 0.0, 0.0, 1.6137593153131952E9, 2021-02-19 16:28:35.313
55.0, -11629.09765625, 19999.759765625, -14229.544921875, 136051.6875, -187500.015625, 79604.8203125, -187500.015625, -187500.015625, -0.09800000488758087, -0.64000004529953, 0.7660000324249268, 192.0, 0.0, 0.0, 0.0, 0.0, 0.0, 0.0, 0.0, 0.0, 0.0, 1.613759315316196E9, 2021-02-19 16:28:35.316
56.0, -11912.0712890625, 20199.740234375, -14036.4931640625, 136245.34375, -187500.015625, 78599.078125, -187500.015625, -187500.015625, -0.09800000488758087, -0.64000004529953, 0.7660000324249268, 192.0, 0.0, 0.0, 0.0, 0.0, 0.0, 0.0, 0.0, 0.0, 0.0, 1.6137593153201697E9, 2021-02-19 16:28:35.320
63.0, -11618.66015625, 19994.037109375, -14238.5751953125, 136058.34375, -187500.015625, 78471.40625, -187500.015625, -187500.015625, -0.09800000488758087, -0.64000004529953, 0.7660000324249268, 192.0, 0.0, 0.0, 0.0, 0.0, 0.0, 0.0, 0.0, 0.0, 0.0, 1.613759315324172E9, 2021-02-19 16:28:35.324
75.0, -11498.9658203125, 20262.951171875, -13961.9052734375, 136331.578125, -187500.015625, 71835.421875, -187500.015625, -187500.015625, -0.09800000488758087, -0.64000004529953, 0.7660000324249268, 192.0, 0.0, 0.0, 0.0, 0.0, 0.0, 0.0, 0.0, 0.0, 0.0, 1.613759315327247E9, 2021-02-19 16:28:35.327
59.0, -11640.8779296875, 19949.580078125, -14280.9755859375, 136008.703125, -187500.015625, 78953.625, -187500.015625, -187500.015625, -0.09800000488758087, -0.64000004529953, 0.7660000324249268, 192.0, 0.0, 0.0, 0.0, 0.0, 0.0, 0.0, 0.0, 0.0, 0.0, 1.6137593153313541E9, 2021-02-19 16:28:35.331
60.0, -11944.615234375, 20110.400390625, -14126.8603515625, 136157.859375, -187500.015625, 78340.515625, -187500.015625, -187500.015625, -0.09800000488758087, -0.64000004529953, 0.7660000324249268, 192.0, 0.0, 0.0, 0.0, 0.0, 0.0, 0.0, 0.0, 0.0, 0.0, 1.613759315345317E9, 2021-02-19 16:28:35.345
61.0, -11947.9677734375, 20265.052734375, -13973.6171875, 136316.828125, -187500.015625, 77016.9140625, -187500.015625, -187500.015625, -0.09800000488758087, -0.64000004529953, 0.7660000324249268, 192.0, 0.0, 0.0, 0.0, 0.0, 0.0, 0.0, 0.0, 0.0, 0.0, 1.6137593153502996E9, 2021-02-19 16:28:35.350
73.0, -11921.01171875, 20400.48046875, -13830.07421875, 136458.203125, -187500.015625, 72797.375, -187500.015625, -187500.015625, -0.09800000488758087, -0.64000004529953, 0.7660000324249268, 192.0, 0.0, 0.0, 0.0, 0.0, 0.0, 0.0, 0.0, 0.0, 0.0, 1.6137593153703573E9, 2021-02-19 16:28:35.370
65.0, -11922.21875, 20326.162109375, -13916.2626953125, 136378.734375, -187500.015625, 76078.3828125, -187500.015625, -187500.015625, -0.09800000488758087, -0.64000004529953, 0.7660000324249268, 192.0, 0.0, 0.0, 0.0, 0.0, 0.0, 0.0, 0.0, 0.0, 0.0, 1.613759315375344E9, 2021-02-19 16:28:35.375
71.0, -11573.4873046875, 20170.19140625, -14051.982421875, 136235.953125, -187500.015625, 74787.8359375, -187500.015625, -187500.015625, -0.09800000488758087, -0.64000004529953, 0.7660000324249268, 192.0, 0.0, 0.0, 0.0, 0.0, 0.0, 0.0, 0.0, 0.0, 0.0, 1.6137593153954873E9, 2021-02-19 16:28:35.395
67.0, -11566.78125, 20096.810546875, -14132.873046875, 136161.96875, -187500.015625, 76901.1953125, -187500.015625, -187500.015625, -0.10000000149011612, -0.6360000371932983, 0.7620000243186951, 192.0, 252.0, 224.0, 236.0, 32.0, 23.0, 208.0, 0.0, 0.0, 0.0, 1.6137593154013135E9, 2021-02-19 16:28:35.401
68.0, -11827.0224609375, 20095.3125, -14136.896484375, 136150.59375, -187500.015625, 76645.3359375, -187500.015625, -187500.015625, -0.10000000149011612, -0.6360000371932983, 0.7620000243186951, 192.0, 0.0, 0.0, 0.0, 0.0, 0.0, 0.0, 0.0, 0.0, 0.0, 1.6137593154043622E9, 2021-02-19 16:28:35.404
69.0, -12018.353515625, 20281.458984375, -13950.7734375, 136332.890625, -187500.015625, 74858.203125, -187500.015625, -187500.015625, -0.10000000149011612, -0.6360000371932983, 0.7620000243186951, 192.0, 0.0, 0.0, 0.0, 0.0, 0.0, 0.0, 0.0, 0.0, 0.0, 1.613759315408442E9, 2021-02-19 16:28:35.408
76.0, -11571.810546875, 20283.0, -13942.771484375, 136343.46875, -187500.015625, 71852.3828125, -187500.015625, -187500.015625, -0.10000000149011612, -0.6360000371932983, 0.7620000243186951, 192.0, 0.0, 0.0, 0.0, 0.0, 0.0, 0.0, 0.0, 0.0, 0.0, 1.6137593154112918E9, 2021-02-19 16:28:35.411
89.0, -11726.9990234375, 20277.994140625, -13959.0439453125, 136337.828125, -187500.015625, 61957.06640625, -187500.015625, -187500.015625, -0.10000000149011612, -0.6360000371932983, 0.7620000243186951, 192.0, 0.0, 0.0, 0.0, 0.0, 0.0, 0.0, 0.0, 0.0, 0.0, 1.6137593154142632E9, 2021-02-19 16:28:35.414
78.0, -11678.31640625, 20511.837890625, -13712.9287109375, 136573.6875, -187500.015625, 68185.46875, -187500.015625, -187500.015625, -0.10000000149011612, -0.6360000371932983, 0.7620000243186951, 192.0, 0.0, 0.0, 0.0, 0.0, 0.0, 0.0, 0.0, 0.0, 0.0, 1.6137593154183786E9, 2021-02-19 16:28:35.418
86.0, -11739.7392578125, 20535.44140625, -13696.5, 136596.640625, -187500.015625, 62061.76171875, -187500.015625, -187500.015625, -0.10000000149011612, -0.6360000371932983, 0.7620000243186951, 192.0, 0.0, 0.0, 0.0, 0.0, 0.0, 0.0, 0.0, 0.0, 0.0, 1.613759315422318E9, 2021-02-19 16:28:35.422
80.0, -11516.7578125, 20237.849609375, -13975.8974609375, 136306.96875, -187500.015625, 68414.2421875, -187500.015625, -187500.015625, -0.10000000149011612, -0.6360000371932983, 0.7620000243186951, 192.0, 0.0, 0.0, 0.0, 0.0, 0.0, 0.0, 0.0, 0.0, 0.0, 1.6137593154374433E9, 2021-02-19 16:28:35.437
98.0, -11870.51953125, 20244.041015625, -13996.9296875, 136302.90625, -187500.015625, 59106.48046875, -187500.015625, -187500.015625, -0.10000000149011612, -0.6360000371932983, 0.7620000243186951, 192.0, 0.0, 0.0, 0.0, 0.0, 0.0, 0.0, 0.0, 0.0, 0.0, 1.6137593154423137E9, 2021-02-19 16:28:35.442
82.0, -11775.3681640625, 20496.458984375, -13722.31640625, 136563.203125, -187500.015625, 64808.1875, -187500.015625, -187500.015625, -0.10000000149011612, -0.6360000371932983, 0.7620000243186951, 192.0, 0.0, 0.0, 0.0, 0.0, 0.0, 0.0, 0.0, 0.0, 0.0, 1.6137593154473155E9, 2021-02-19 16:28:35.447
93.0, -11726.0380859375, 20167.84375, -14066.98046875, 136228.3125, -187500.015625, 60712.1171875, -187500.015625, -187500.015625, -0.10000000149011612, -0.6360000371932983, 0.7620000243186951, 192.0, 0.0, 0.0, 0.0, 0.0, 0.0, 0.0, 0.0, 0.0, 0.0, 1.6137593154513812E9, 2021-02-19 16:28:35.451
90.0, -11812.248046875, 20420.306640625, -13820.7763671875, 136481.171875, -187500.015625, 60171.65234375, -187500.015625, -187500.015625, -0.10000000149011612, -0.6360000371932983, 0.7620000243186951, 192.0, 0.0, 0.0, 0.0, 0.0, 0.0, 0.0, 0.0, 0.0, 0.0, 1.6137593154804509E9, 2021-02-19 16:28:35.480
91.0, -11572.2578125, 20323.189453125, -13916.732421875, 136392.46875, -187500.015625, 59769.2109375, -187500.015625, -187500.015625, -0.10000000149011612, -0.6360000371932983, 0.7620000243186951, 192.0, 0.0, 0.0, 0.0, 0.0, 0.0, 0.0, 0.0, 0.0, 0.0, 1.613759315496442E9, 2021-02-19 16:28:35.496
96.0, -11467.8076171875, 20079.17578125, -14154.0625, 136150.53125, -187500.015625, 59665.05078125, -187500.015625, -187500.015625, -0.09400000423192978, -0.6420000195503235, 0.7620000243186951, 192.0, 253.0, 16.0, 235.0, 240.0, 23.0, 208.0, 0.0, 0.0, 0.0, 1.6137593154995856E9, 2021-02-19 16:28:35.499
99.0, -11676.908203125, 20244.623046875, -13993.041015625, 136313.9375, -187500.015625, 58528.5546875, -187500.015625, -187500.015625, -0.09400000423192978, -0.6420000195503235, 0.7620000243186951, 192.0, 0.0, 0.0, 0.0, 0.0, 0.0, 0.0, 0.0, 0.0, 0.0, 1.6137593155036037E9, 2021-02-19 16:28:35.503
100.0, -11465.1259765625, 20019.541015625, -14212.1552734375, 136094.171875, -187500.015625, 59840.625, -187500.015625, -187500.015625, -0.09400000423192978, -0.6420000195503235, 0.7620000243186951, 192.0, 0.0, 0.0, 0.0, 0.0, 0.0, 0.0, 0.0, 0.0, 0.0, 1.6137593155064733E9, 2021-02-19 16:28:35.506
101.0, -11583.478515625, 19913.302734375, -14321.544921875, 135980.09375, -187500.015625, 60997.83984375, -187500.015625, -187500.015625, -0.09400000423192978, -0.6420000195503235, 0.7620000243186951, 192.0, 0.0, 0.0, 0.0, 0.0, 0.0, 0.0, 0.0, 0.0, 0.0, 1.613759315509405E9, 2021-02-19 16:28:35.509
108.0, -11685.1787109375, 19933.93359375, -14296.599609375, 136012.796875, -187500.015625, 62134.40625, -187500.015625, -187500.015625, -0.09400000423192978, -0.6420000195503235, 0.7620000243186951, 192.0, 0.0, 0.0, 0.0, 0.0, 0.0, 0.0, 0.0, 0.0, 0.0, 1.613759315517481E9, 2021-02-19 16:28:35.517
103.0, -11816.875, 20144.150390625, -14087.521484375, 136208.0625, -187500.015625, 59654.97265625, -187500.015625, -187500.015625, -0.09400000423192978, -0.6420000195503235, 0.7620000243186951, 192.0, 0.0, 0.0, 0.0, 0.0, 0.0, 0.0, 0.0, 0.0, 0.0, 1.613759315520408E9, 2021-02-19 16:28:35.520
104.0, -11561.7080078125, 20010.755859375, -14216.0, 136084.484375, -187500.015625, 60875.95703125, -187500.015625, -187500.015625, -0.09400000423192978, -0.6420000195503235, 0.7620000243186951, 192.0, 0.0, 0.0, 0.0, 0.0, 0.0, 0.0, 0.0, 0.0, 0.0, 1.6137593155234413E9, 2021-02-19 16:28:35.523
121.0, -11783.0791015625, 20031.05078125, -14209.4951171875, 136102.421875, -187500.015625, 64232.49609375, -187500.015625, -187500.015625, -0.09400000423192978, -0.6420000195503235, 0.7620000243186951, 192.0, 0.0, 0.0, 0.0, 0.0, 0.0, 0.0, 0.0, 0.0, 0.0, 1.6137593155274599E9, 2021-02-19 16:28:35.527
106.0, -11958.6298828125, 19998.841796875, -14235.736328125, 136061.484375, -187500.015625, 62037.6015625, -187500.015625, -187500.015625, -0.09800000488758087, -0.6380000114440918, 0.7640000581741333, 192.0, 252.0, 240.0, 236.0, 16.0, 23.0, 224.0, 0.0, 0.0, 0.0, 1.6137593155305955E9, 2021-02-19 16:28:35.530
119.0, -12163.908203125, 20237.357421875, -14005.46875, 136292.578125, -187500.015625, 63956.2734375, -187500.015625, -187500.015625, -0.09800000488758087, -0.6380000114440918, 0.7640000581741333, 192.0, 0.0, 0.0, 0.0, 0.0, 0.0, 0.0, 0.0, 0.0, 0.0, 1.6137593155444155E9, 2021-02-19 16:28:35.544
110.0, -11979.3271484375, 19980.134765625, -14254.35546875, 136044.015625, -187500.015625, 63755.95703125, -187500.015625, -187500.015625, -0.09800000488758087, -0.6380000114440918, 0.7640000581741333, 192.0, 0.0, 0.0, 0.0, 0.0, 0.0, 0.0, 0.0, 0.0, 0.0, 1.6137593155476713E9, 2021-02-19 16:28:35.547
111.0, -12047.1875, 20099.447265625, -14135.0419921875, 136164.703125, -187500.015625, 62900.37890625, -187500.015625, -187500.015625, -0.09800000488758087, -0.6380000114440918, 0.7640000581741333, 192.0, 0.0, 0.0, 0.0, 0.0, 0.0, 0.0, 0.0, 0.0, 0.0, 1.613759315551447E9, 2021-02-19 16:28:35.551
116.0, -11911.7802734375, 20047.859375, -14187.568359375, 136116.53125, -187500.015625, 63674.84375, -187500.015625, -187500.015625, -0.10400000214576721, -0.64000004529953, 0.7620000243186951, 192.0, 252.0, 192.0, 236.0, 0.0, 23.0, 208.0, 0.0, 0.0, 0.0, 1.6137593155544417E9, 2021-02-19 16:28:35.554
117.0, -11772.6630859375, 19904.5625, -14325.322265625, 135975.71875, -187500.015625, 65116.171875, -187500.015625, -187500.015625, -0.10400000214576721, -0.64000004529953, 0.7620000243186951, 192.0, 0.0, 0.0, 0.0, 0.0, 0.0, 0.0, 0.0, 0.0, 0.0, 1.6137593155604815E9, 2021-02-19 16:28:35.560
122.0, -11917.279296875, 20071.6875, -14171.765625, 136131.328125, -187500.015625, 64553.01953125, -187500.015625, -187500.015625, -0.10400000214576721, -0.64000004529953, 0.7620000243186951, 192.0, 0.0, 0.0, 0.0, 0.0, 0.0, 0.0, 0.0, 0.0, 0.0, 1.6137593155654955E9, 2021-02-19 16:28:35.565
133.0, -11880.2421875, 20247.662109375, -13989.666015625, 136316.5625, -187500.015625, 58462.171875, -187500.015625, -187500.015625, -0.10400000214576721, -0.64000004529953, 0.7620000243186951, 192.0, 0.0, 0.0, 0.0, 0.0, 0.0, 0.0, 0.0, 0.0, 0.0, 1.6137593155696056E9, 2021-02-19 16:28:35.569
124.0, -11972.5771484375, 20341.271484375, -13904.818359375, 136398.703125, -187500.015625, 61840.546875, -187500.015625, -187500.015625, -0.10400000214576721, -0.64000004529953, 0.7620000243186951, 192.0, 0.0, 0.0, 0.0, 0.0, 0.0, 0.0, 0.0, 0.0, 0.0, 1.613759315580727E9, 2021-02-19 16:28:35.580
143.0, -12211.6962890625, 20284.408203125, -13962.330078125, 136341.390625, -187500.015625, 53257.6328125, -187500.015625, -187500.015625, -0.10400000214576721, -0.64000004529953, 0.7620000243186951, 192.0, 0.0, 0.0, 0.0, 0.0, 0.0, 0.0, 0.0, 0.0, 0.0, 1.6137593155834765E9, 2021-02-19 16:28:35.583
126.0, -11814.505859375, 20089.703125, -14151.08984375, 136153.34375, -187500.015625, 62914.2109375, -187500.015625, -187500.015625, -0.08400000631809235, -0.6460000276565552, 0.7760000228881836, 192.0, 253.0, 96.0, 235.0, 208.0, 24.0, 64.0, 0.0, 0.0, 0.0, 1.6137593155865686E9, 2021-02-19 16:28:35.586
127.0, -12089.3203125, 20304.189453125, -13943.6884765625, 136359.296875, -187500.015625, 61500.10546875, -187500.015625, -187500.015625, -0.08400000631809235, -0.6460000276565552, 0.7760000228881836, 192.0, 0.0, 0.0, 0.0, 0.0, 0.0, 0.0, 0.0, 0.0, 0.0, 1.6137593155905423E9, 2021-02-19 16:28:35.590
141.0, -12146.541015625, 20363.421875, -13880.34375, 136430.234375, -187500.015625, 52948.3515625, -187500.015625, -187500.015625, -0.08400000631809235, -0.6460000276565552, 0.7760000228881836, 192.0, 0.0, 0.0, 0.0, 0.0, 0.0, 0.0, 0.0, 0.0, 0.0, 1.6137593155936468E9, 2021-02-19 16:28:35.593
139.0, -12187.220703125, 20299.71875, -13945.0517578125, 136359.453125, -187500.015625, 55868.4296875, -187500.015625, -187500.015625, -0.08400000631809235, -0.6460000276565552, 0.7760000228881836, 192.0, 0.0, 0.0, 0.0, 0.0, 0.0, 0.0, 0.0, 0.0, 0.0, 1.6137593156075187E9, 2021-02-19 16:28:35.607
134.0, -11833.0126953125, 20155.640625, -14081.017578125, 136219.65625, -187500.015625, 59264.328125, -187500.015625, -187500.015625, -0.08400000631809235, -0.6460000276565552, 0.7760000228881836, 192.0, 0.0, 0.0, 0.0, 0.0, 0.0, 0.0, 0.0, 0.0, 0.0, 1.613759315611647E9, 2021-02-19 16:28:35.611
146.0, -12010.3740234375, 20256.423828125, -13983.4296875, 136330.953125, -187500.015625, 50880.79296875, -187500.015625, -187500.015625, -0.09200000762939453, -0.6460000276565552, 0.7640000581741333, 192.0, 253.0, 32.0, 235.0, 208.0, 23.0, 224.0, 0.0, 0.0, 0.0, 1.6137593156145296E9, 2021-02-19 16:28:35.614
136.0, -12255.8408203125, 20435.6171875, -13811.052734375, 136494.546875, -187500.015625, 56478.38671875, -187500.015625, -187500.015625, -0.0860000029206276, -0.6480000019073486, 0.7740000486373901, 192.0, 253.0, 80.0, 235.0, 192.0, 24.0, 48.0, 0.0, 0.0, 0.0, 1.6137593156457655E9, 2021-02-19 16:28:35.645
137.0, -12028.859375, 20347.484375, -13894.1572265625, 136417.546875, -187500.015625, 55940.89453125, -187500.015625, -187500.015625, -0.0860000029206276, -0.6480000019073486, 0.7740000486373901, 192.0, 0.0, 0.0, 0.0, 0.0, 0.0, 0.0, 0.0, 0.0, 0.0, 1.6137593156485512E9, 2021-02-19 16:28:35.648
153.0, -12313.28515625, 20426.1640625, -13825.447265625, 136487.078125, -187500.015625, 47145.81640625, -187500.015625, -187500.015625, -0.0860000029206276, -0.6480000019073486, 0.7740000486373901, 192.0, 0.0, 0.0, 0.0, 0.0, 0.0, 0.0, 0.0, 0.0, 0.0, 1.613759315653612E9, 2021-02-19 16:28:35.653
147.0, -12138.091796875, 20246.076171875, -13998.875, 136306.75, -187500.015625, 51105.0703125, -187500.015625, -187500.015625, -0.0860000029206276, -0.6480000019073486, 0.7740000486373901, 192.0, 0.0, 0.0, 0.0, 0.0, 0.0, 0.0, 0.0, 0.0, 0.0, 1.6137593156777143E9, 2021-02-19 16:28:35.677
148.0, -12402.8935546875, 20407.767578125, -13841.943359375, 136463.234375, -187500.015625, 49548.0703125, -187500.015625, -187500.015625, -0.0860000029206276, -0.6480000019073486, 0.7740000486373901, 192.0, 0.0, 0.0, 0.0, 0.0, 0.0, 0.0, 0.0, 0.0, 0.0, 1.613759315682598E9, 2021-02-19 16:28:35.682
149.0, -12243.2568359375, 20468.228515625, -13778.93359375, 136535.109375, -187500.015625, 48330.86328125, -187500.015625, -187500.015625, -0.0860000029206276, -0.6480000019073486, 0.7740000486373901, 192.0, 0.0, 0.0, 0.0, 0.0, 0.0, 0.0, 0.0, 0.0, 0.0, 1.6137593156938016E9, 2021-02-19 16:28:35.693
150.0, -11986.7255859375, 20282.330078125, -13959.8037109375, 136354.546875, -187500.015625, 48985.2109375, -187500.015625, -187500.015625, -0.0860000029206276, -0.6480000019073486, 0.7740000486373901, 192.0, 0.0, 0.0, 0.0, 0.0, 0.0, 0.0, 0.0, 0.0, 0.0, 1.6137593156986363E9, 2021-02-19 16:28:35.698
151.0, -12061.873046875, 20176.5390625, -14069.998046875, 136239.890625, -187500.015625, 49670.55859375, -187500.015625, -187500.015625, -0.0860000029206276, -0.6480000019073486, 0.7740000486373901, 192.0, 0.0, 0.0, 0.0, 0.0, 0.0, 0.0, 0.0, 0.0, 0.0, 1.6137593157027216E9, 2021-02-19 16:28:35.702
154.0, -12047.232421875, 20257.294921875, -13989.6435546875, 136330.578125, -187500.015625, 47656.84375, -187500.015625, -187500.015625, -0.0860000029206276, -0.6480000019073486, 0.7740000486373901, 192.0, 0.0, 0.0, 0.0, 0.0, 0.0, 0.0, 0.0, 0.0, 0.0, 1.613759315709866E9, 2021-02-19 16:28:35.709
155.0, -12043.9462890625, 20133.66796875, -14109.44921875, 136203.53125, -187500.015625, 48584.33203125, -187500.015625, -187500.015625, -0.09200000762939453, -0.6440000534057617, 0.7660000324249268, 192.0, 253.0, 32.0, 235.0, 224.0, 23.0, 240.0, 0.0, 0.0, 0.0, 1.6137593157167728E9, 2021-02-19 16:28:35.716
156.0, -12377.4345703125, 20244.48828125, -14001.556640625, 136303.734375, -187500.015625, 47785.078125, -187500.015625, -187500.015625, -0.09200000762939453, -0.6440000534057617, 0.7660000324249268, 192.0, 0.0, 0.0, 0.0, 0.0, 0.0, 0.0, 0.0, 0.0, 0.0, 1.6137593157206714E9, 2021-02-19 16:28:35.720
157.0, -12423.2333984375, 20333.134765625, -13915.279296875, 136397.6875, -187500.015625, 46420.90625, -187500.015625, -187500.015625, -0.09200000762939453, -0.6440000534057617, 0.7660000324249268, 192.0, 0.0, 0.0, 0.0, 0.0, 0.0, 0.0, 0.0, 0.0, 0.0, 1.613759315724717E9, 2021-02-19 16:28:35.724
165.0, -12402.6025390625, 20454.349609375, -13792.3447265625, 136515.328125, -187500.015625, 44349.75, -187500.015625, -187500.015625, -0.1080000028014183, -0.64000004529953, 0.7700000405311584, 192.0, 252.0, 160.0, 236.0, 0.0, 24.0, 16.0, 0.0, 0.0, 0.0, 1.6137593157286508E9, 2021-02-19 16:28:35.728
159.0, -12078.5693359375, 20118.06640625, -14119.283203125, 136188.921875, -187500.015625, 47769.5, -187500.015625, -187500.015625, -0.1080000028014183, -0.64000004529953, 0.7700000405311584, 192.0, 0.0, 0.0, 0.0, 0.0, 0.0, 0.0, 0.0, 0.0, 0.0, 1.6137593157346957E9, 2021-02-19 16:28:35.734
160.0, -12351.0595703125, 20234.67578125, -14011.123046875, 136294.765625, -187500.015625, 47211.0859375, -187500.015625, -187500.015625, -0.1080000028014183, -0.64000004529953, 0.7700000405311584, 192.0, 0.0, 0.0, 0.0, 0.0, 0.0, 0.0, 0.0, 0.0, 0.0, 1.6137593157497327E9, 2021-02-19 16:28:35.749
161.0, -12402.7138671875, 20411.970703125, -13838.1884765625, 136475.71875, -187500.015625, 45415.74609375, -187500.015625, -187500.015625, -0.1080000028014183, -0.64000004529953, 0.7700000405311584, 192.0, 0.0, 0.0, 0.0, 0.0, 0.0, 0.0, 0.0, 0.0, 0.0, 1.613759315752839E9, 2021-02-19 16:28:35.752
162.0, -12144.57421875, 20333.001953125, -13910.541015625, 136404.828125, -187500.015625, 45303.00390625, -187500.015625, -187500.015625, -0.1080000028014183, -0.64000004529953, 0.7700000405311584, 192.0, 0.0, 0.0, 0.0, 0.0, 0.0, 0.0, 0.0, 0.0, 0.0, 1.6137593157568045E9, 2021-02-19 16:28:35.756
185.0, -12160.2421875, 20529.673828125, -13719.5224609375, 136595.21875, -187500.015625, 26410.685546875, -187500.015625, -187500.015625, -0.08000000566244125, -0.6440000534057617, 0.7680000066757202, 192.0, 253.0, 128.0, 235.0, 224.0, 24.0, 0.0, 0.0, 0.0, 0.0, 1.6137593157597024E9, 2021-02-19 16:28:35.759
166.0, -12177.2294921875, 20408.259765625, -13835.8408203125, 136477.0, -187500.015625, 43595.0859375, -187500.015625, -187500.015625, -0.08000000566244125, -0.6440000534057617, 0.7680000066757202, 192.0, 0.0, 0.0, 0.0, 0.0, 0.0, 0.0, 0.0, 0.0, 0.0, 1.613759315762729E9, 2021-02-19 16:28:35.762
167.0, -12014.1962890625, 20228.685546875, -14013.2919921875, 136302.078125, -187500.015625, 44336.25, -187500.015625, -187500.015625, -0.08000000566244125, -0.6440000534057617, 0.7680000066757202, 192.0, 0.0, 0.0, 0.0, 0.0, 0.0, 0.0, 0.0, 0.0, 0.0, 1.6137593157667897E9, 2021-02-19 16:28:35.766
183.0, -11951.0751953125, 20607.927734375, -13640.3076171875, 136681.984375, -187500.015625, 27189.935546875, -187500.015625, -187500.015625, -0.08000000566244125, -0.6440000534057617, 0.7680000066757202, 192.0, 0.0, 0.0, 0.0, 0.0, 0.0, 0.0, 0.0, 0.0, 0.0, 1.6137593157698386E9, 2021-02-19 16:28:35.769
169.0, -12404.94921875, 20534.14453125, -13719.8359375, 136596.53125, -187500.015625, 42142.76171875, -187500.015625, -187500.015625, -0.08000000566244125, -0.6440000534057617, 0.7680000066757202, 192.0, 0.0, 0.0, 0.0, 0.0, 0.0, 0.0, 0.0, 0.0, 0.0, 1.6137593157739267E9, 2021-02-19 16:28:35.773
181.0, -12216.658203125, 20628.423828125, -13624.125, 136693.546875, -187500.015625, 30175.390625, -187500.015625, -187500.015625, -0.08000000566244125, -0.6440000534057617, 0.7680000066757202, 192.0, 0.0, 0.0, 0.0, 0.0, 0.0, 0.0, 0.0, 0.0, 0.0, 1.613759315776719E9, 2021-02-19 16:28:35.776
192.0, -11904.001953125, 20432.9140625, -13807.923828125, 136515.125, -187500.015625, 20342.388671875, -187500.015625, -187500.015625, -0.08000000566244125, -0.6440000534057617, 0.7680000066757202, 192.0, 0.0, 0.0, 0.0, 0.0, 0.0, 0.0, 0.0, 0.0, 0.0, 1.6137593157797353E9, 2021-02-19 16:28:35.779
179.0, -11957.154296875, 20542.369140625, -13702.1103515625, 136611.328125, -187500.015625, 31671.572265625, -187500.015625, -187500.015625, -0.08000000566244125, -0.6440000534057617, 0.7680000066757202, 192.0, 0.0, 0.0, 0.0, 0.0, 0.0, 0.0, 0.0, 0.0, 0.0, 1.6137593157837899E9, 2021-02-19 16:28:35.783
175.0, -11927.2705078125, 20488.078125, -13757.6103515625, 136562.421875, -187500.015625, 36532.359375, -187500.015625, -187500.015625, -0.07600000500679016, -0.6440000534057617, 0.7780000567436218, 192.0, 253.0, 160.0, 235.0, 224.0, 24.0, 80.0, 0.0, 0.0, 0.0, 1.6137593157869039E9, 2021-02-19 16:28:35.786
190.0, -12310.580078125, 20629.453125, -13617.21875, 136701.234375, -187500.015625, 20967.56640625, -187500.015625, -187500.015625, -0.07600000500679016, -0.6440000534057617, 0.7780000567436218, 192.0, 0.0, 0.0, 0.0, 0.0, 0.0, 0.0, 0.0, 0.0, 0.0, 1.6137593157898307E9, 2021-02-19 16:28:35.789
177.0, -12275.041015625, 20609.044921875, -13644.3759765625, 136668.859375, -187500.015625, 34416.38671875, -187500.015625, -187500.015625, -0.07600000500679016, -0.6440000534057617, 0.7780000567436218, 192.0, 0.0, 0.0, 0.0, 0.0, 0.0, 0.0, 0.0, 0.0, 0.0, 1.6137593157937684E9, 2021-02-19 16:28:35.793
186.0, -12279.064453125, 20658.0625, -13590.1279296875, 136725.234375, -187500.015625, 24169.56640625, -187500.015625, -187500.015625, -0.07600000500679016, -0.6440000534057617, 0.7780000567436218, 192.0, 0.0, 0.0, 0.0, 0.0, 0.0, 0.0, 0.0, 0.0, 0.0, 1.6137593157967408E9, 2021-02-19 16:28:35.796
187.0, -12029.328125, 20585.30859375, -13656.1103515625, 136663.390625, -187500.015625, 23294.607421875, -187500.015625, -187500.015625, -0.07600000500679016, -0.6440000534057617, 0.7780000567436218, 192.0, 0.0, 0.0, 0.0, 0.0, 0.0, 0.0, 0.0, 0.0, 0.0, 1.6137593158007936E9, 2021-02-19 16:28:35.800
196.0, -11928.611328125, 20397.75390625, -13847.732421875, 136477.625, -187500.015625, 17264.755859375, -187500.015625, -187500.015625, -0.07600000500679016, -0.6440000534057617, 0.7780000567436218, 192.0, 0.0, 0.0, 0.0, 0.0, 0.0, 0.0, 0.0, 0.0, 0.0, 1.6137593158038335E9, 2021-02-19 16:28:35.803
201.0, -12014.5537109375, 20299.31640625, -13947.689453125, 136381.109375, -187500.015625, 15333.20703125, -187500.015625, -187500.015625, -0.07600000500679016, -0.6440000534057617, 0.7780000567436218, 192.0, 0.0, 0.0, 0.0, 0.0, 0.0, 0.0, 0.0, 0.0, 0.0, 1.6137593158068295E9, 2021-02-19 16:28:35.806
194.0, -12293.8388671875, 20665.818359375, -13587.8935546875, 136736.359375, -187500.015625, 18177.421875, -187500.015625, -187500.015625, -0.07600000500679016, -0.6440000534057617, 0.7780000567436218, 192.0, 0.0, 0.0, 0.0, 0.0, 0.0, 0.0, 0.0, 0.0, 0.0, 1.613759315810758E9, 2021-02-19 16:28:35.810
211.0, -12371.98046875, 20542.884765625, -13704.7255859375, 136624.984375, -187500.015625, 9274.900390625, -187500.015625, -187500.015625, -0.07600000500679016, -0.6440000534057617, 0.7780000567436218, 192.0, 0.0, 0.0, 0.0, 0.0, 0.0, 0.0, 0.0, 0.0, 0.0, 1.6137593158137646E9, 2021-02-19 16:28:35.813
198.0, -12347.9521484375, 20527.908203125, -13721.9814453125, 136603.3125, -187500.015625, 15882.43359375, -187500.015625, -187500.015625, -0.07600000500679016, -0.6440000534057617, 0.7780000567436218, 192.0, 0.0, 0.0, 0.0, 0.0, 0.0, 0.0, 0.0, 0.0, 0.0, 1.6137593158168375E9, 2021-02-19 16:28:35.816
199.0, -12233.5791015625, 20569.3046875, -13681.4130859375, 136649.109375, -187500.015625, 14370.3828125, -187500.015625, -187500.015625, -0.07600000500679016, -0.6440000534057617, 0.7780000567436218, 192.0, 0.0, 0.0, 0.0, 0.0, 0.0, 0.0, 0.0, 0.0, 0.0, 1.613759315819986E9, 2021-02-19 16:28:35.819
202.0, -12314.603515625, 20483.853515625, -13771.22265625, 136557.328125, -187500.015625, 14091.6123046875, -187500.015625, -187500.015625, -0.07600000500679016, -0.6440000534057617, 0.7780000567436218, 192.0, 0.0, 0.0, 0.0, 0.0, 0.0, 0.0, 0.0, 0.0, 0.0, 1.6137593158358915E9, 2021-02-19 16:28:35.835
203.0, -12257.47265625, 20574.82421875, -13677.2998046875, 136654.5, -187500.015625, 12411.9677734375, -187500.015625, -187500.015625, -0.07600000500679016, -0.6440000534057617, 0.7780000567436218, 192.0, 0.0, 0.0, 0.0, 0.0, 0.0, 0.0, 0.0, 0.0, 0.0, 1.613759315839815E9, 2021-02-19 16:28:35.839
209.0, -11933.9755859375, 20251.216796875, -13990.2021484375, 136344.921875, -187500.015625, 11598.4091796875, -187500.015625, -187500.015625, -0.07600000500679016, -0.6440000534057617, 0.7780000567436218, 192.0, 0.0, 0.0, 0.0, 0.0, 0.0, 0.0, 0.0, 0.0, 0.0, 1.613759315842913E9, 2021-02-19 16:28:35.842
205.0, -11953.8017578125, 20277.837890625, -13970.15234375, 136370.578125, -187500.015625, 13523.8330078125, -187500.015625, -187500.015625, -0.08800000697374344, -0.6420000195503235, 0.7560000419616699, 192.0, 253.0, 64.0, 235.0, 240.0, 23.0, 160.0, 0.0, 0.0, 0.0, 1.613759315850922E9, 2021-02-19 16:28:35.850
206.0, -12278.0810546875, 20383.76171875, -13869.5703125, 136468.421875, -187500.015625, 12631.8642578125, -187500.015625, -187500.015625, -0.08800000697374344, -0.6420000195503235, 0.7560000419616699, 192.0, 0.0, 0.0, 0.0, 0.0, 0.0, 0.0, 0.0, 0.0, 0.0, 1.6137593158549416E9, 2021-02-19 16:28:35.854
207.0, -12331.658203125, 20519.951171875, -13734.05078125, 136605.3125, -187500.015625, 10980.919921875, -187500.015625, -187500.015625, -0.08800000697374344, -0.6420000195503235, 0.7560000419616699, 192.0, 0.0, 0.0, 0.0, 0.0, 0.0, 0.0, 0.0, 0.0, 0.0, 1.6137593158589752E9, 2021-02-19 16:28:35.858
212.0, -12096.8310546875, 20479.875, -13762.68359375, 136574.140625, -187500.015625, 8642.5029296875, -187500.015625, -187500.015625, -0.08800000697374344, -0.6420000195503235, 0.7560000419616699, 192.0, 0.0, 0.0, 0.0, 0.0, 0.0, 0.0, 0.0, 0.0, 0.0, 1.6137593158658497E9, 2021-02-19 16:28:35.865
213.0, -11951.1640625, 20302.826171875, -13934.61328125, 136402.65625, -187500.015625, 9407.46875, -187500.015625, -187500.015625, -0.08800000697374344, -0.6420000195503235, 0.7560000419616699, 192.0, 0.0, 0.0, 0.0, 0.0, 0.0, 0.0, 0.0, 0.0, 0.0, 1.6137593158698468E9, 2021-02-19 16:28:35.869
214.0, -12162.2314453125, 20433.986328125, -13804.951171875, 136520.34375, -187500.015625, 8976.5498046875, -187500.015625, -187500.015625, -0.08800000697374344, -0.6420000195503235, 0.7560000419616699, 192.0, 0.0, 0.0, 0.0, 0.0, 0.0, 0.0, 0.0, 0.0, 0.0, 1.6137593158829727E9, 2021-02-19 16:28:35.882
215.0, -12326.271484375, 20638.728515625, -13601.3935546875, 136728.328125, -187500.015625, 6868.3779296875, -187500.015625, -187500.015625, -0.10600000619888306, -0.6340000033378601, 0.7540000081062317, 192.0, 252.0, 176.0, 236.0, 48.0, 23.0, 144.0, 0.0, 0.0, 0.0, 1.6137593158868732E9, 2021-02-19 16:28:35.886
216.0, -12108.095703125, 20593.220703125, -13642.431640625, 136693.03125, -187500.015625, 5620.14501953125, -187500.015625, -187500.015625, -0.10600000619888306, -0.6340000033378601, 0.7540000081062317, 192.0, 0.0, 0.0, 0.0, 0.0, 0.0, 0.0, 0.0, 0.0, 0.0, 1.613759315889857E9, 2021-02-19 16:28:35.889
217.0, -11920.6767578125, 20414.2265625, -13817.333984375, 136515.578125, -187500.015625, 5971.8046875, -187500.015625, -187500.015625, -0.10600000619888306, -0.6340000033378601, 0.7540000081062317, 192.0, 0.0, 0.0, 0.0, 0.0, 0.0, 0.0, 0.0, 0.0, 0.0, 1.6137593158928955E9, 2021-02-19 16:28:35.892
218.0, -12072.8701171875, 20458.6171875, -13777.9951171875, 136544.828125, -187500.015625, 5587.220703125, -187500.015625, -187500.015625, -0.10600000619888306, -0.6340000033378601, 0.7540000081062317, 192.0, 0.0, 0.0, 0.0, 0.0, 0.0, 0.0, 0.0, 0.0, 0.0, 1.6137593158971117E9, 2021-02-19 16:28:35.897
219.0, -12289.994140625, 20678.201171875, -13563.9765625, 136762.734375, -187500.015625, 3327.571044921875, -187500.015625, -187500.015625, -0.10600000619888306, -0.6340000033378601, 0.7540000081062317, 192.0, 0.0, 0.0, 0.0, 0.0, 0.0, 0.0, 0.0, 0.0, 0.0, 1.6137593158998513E9, 2021-02-19 16:28:35.899
220.0, -12111.158203125, 20684.1015625, -13555.908203125, 136776.328125, -187500.015625, 1490.213134765625, -187500.015625, -187500.015625, -0.10600000619888306, -0.6340000033378601, 0.7540000081062317, 192.0, 0.0, 0.0, 0.0, 0.0, 0.0, 0.0, 0.0, 0.0, 0.0, 1.6137593159028533E9, 2021-02-19 16:28:35.902
221.0, -11880.041015625, 20530.099609375, -13708.1455078125, 136628.296875, -187500.015625, 1397.8780517578125, -187500.015625, -187500.015625, -0.10600000619888306, -0.6340000033378601, 0.7540000081062317, 192.0, 0.0, 0.0, 0.0, 0.0, 0.0, 0.0, 0.0, 0.0, 0.0, 1.613759315906907E9, 2021-02-19 16:28:35.906
222.0, -11956.3720703125, 20518.54296875, -13720.953125, 136612.453125, -187500.015625, 1066.15576171875, -187500.015625, -187500.015625, -0.10600000619888306, -0.6340000033378601, 0.7540000081062317, 192.0, 0.0, 0.0, 0.0, 0.0, 0.0, 0.0, 0.0, 0.0, 0.0, 1.6137593159099998E9, 2021-02-19 16:28:35.909
223.0, -12216.501953125, 20757.52734375, -13487.9365234375, 136844.546875, -187500.015625, -1190.1409912109375, -187500.015625, -187500.015625, -0.10600000619888306, -0.6340000033378601, 0.7540000081062317, 192.0, 0.0, 0.0, 0.0, 0.0, 0.0, 0.0, 0.0, 0.0, 0.0, 1.613759315912886E9, 2021-02-19 16:28:35.912
224.0, -12099.53515625, 20805.517578125, -13436.4150390625, 136906.6875, -187500.015625, -3467.403564453125, -187500.015625, -187500.015625, -0.07600000500679016, -0.6380000114440918, 0.7760000228881836, 192.0, 253.0, 160.0, 236.0, 16.0, 24.0, 64.0, 0.0, 0.0, 0.0, 1.6137593159158912E9, 2021-02-19 16:28:35.915
225.0, -11860.818359375, 20626.76953125, -13609.0380859375, 136736.1875, -187500.015625, -3906.391845703125, -187500.015625, -187500.015625, -0.07600000500679016, -0.6380000114440918, 0.7760000228881836, 192.0, 0.0, 0.0, 0.0, 0.0, 0.0, 0.0, 0.0, 0.0, 0.0, 1.6137593159278972E9, 2021-02-19 16:28:35.927
226.0, -11916.474609375, 20497.576171875, -13740.5107421875, 136593.828125, -187500.015625, -4024.49853515625, -187500.015625, -187500.015625, -0.07600000500679016, -0.6380000114440918, 0.7760000228881836, 192.0, 0.0, 0.0, 0.0, 0.0, 0.0, 0.0, 0.0, 0.0, 0.0, 1.6137593159319315E9, 2021-02-19 16:28:35.931
227.0, -12239.501953125, 20689.4453125, -13555.9306640625, 136777.71875, -187500.015625, -5932.0185546875, -187500.015625, -187500.015625, -0.07600000500679016, -0.6380000114440918, 0.7760000228881836, 192.0, 0.0, 0.0, 0.0, 0.0, 0.0, 0.0, 0.0, 0.0, 0.0, 1.6137593159349945E9, 2021-02-19 16:28:35.934
228.0, -12223.4755859375, 20769.1953125, -13475.240234375, 136865.453125, -187500.015625, -8315.318359375, -187500.015625, -187500.015625, -0.07600000500679016, -0.6380000114440918, 0.7760000228881836, 192.0, 0.0, 0.0, 0.0, 0.0, 0.0, 0.0, 0.0, 0.0, 0.0, 1.613759315937929E9, 2021-02-19 16:28:35.937
229.0, -11978.0087890625, 20629.810546875, -13608.4345703125, 136738.828125, -187500.015625, -8956.74609375, -187500.015625, -187500.015625, -0.07600000500679016, -0.6380000114440918, 0.7760000228881836, 192.0, 0.0, 0.0, 0.0, 0.0, 0.0, 0.0, 0.0, 0.0, 0.0, 1.6137593159419124E9, 2021-02-19 16:28:35.941
230.0, -11945.3525390625, 20475.26953125, -13759.599609375, 136579.40625, -187500.015625, -8839.82421875, -187500.015625, -187500.015625, -0.07600000500679016, -0.6380000114440918, 0.7760000228881836, 192.0, 0.0, 0.0, 0.0, 0.0, 0.0, 0.0, 0.0, 0.0, 0.0, 1.6137593159449415E9, 2021-02-19 16:28:35.944
231.0, -12272.91796875, 20585.44140625, -13654.1884765625, 136680.28125, -187500.015625, -10317.140625, -187500.015625, -187500.015625, -0.07600000500679016, -0.6380000114440918, 0.7760000228881836, 192.0, 0.0, 0.0, 0.0, 0.0, 0.0, 0.0, 0.0, 0.0, 0.0, 1.6137593159640796E9, 2021-02-19 16:28:35.964
232.0, -12338.2294921875, 20739.265625, -13501.5927734375, 136839.90625, -187500.015625, -12729.0498046875, -187500.015625, -187500.015625, -0.07600000500679016, -0.6380000114440918, 0.7760000228881836, 192.0, 0.0, 0.0, 0.0, 0.0, 0.0, 0.0, 0.0, 0.0, 0.0, 1.6137593159680564E9, 2021-02-19 16:28:35.968
